Point No.	Frequency Set (GHz)	THz Photocurrent (nA)	Frequency Act (GHz)	Amplitude (via StrMod)	Phase (via StrMod)	Timestamp (s)
1	600.000	-0.015	599.999	0.070	0.864	1772223198.806
2	600.000	-0.025	599.996	0.080	1.594	1772223199.068
3	600.000	-0.021	600.002	0.059	1.721	1772223199.294
4	600.000	0.040	600.003	0.147	2.239	1772223199.568
5	600.000	-0.006	599.999	0.090	2.015	1772223199.815
6	600.000	0.022	599.999	0.148	1.368	1772223200.063
7	600.000	-0.036	600.000	0.081	1.984	1772223200.289
8	600.000	0.032	599.997	0.060	2.149	1772223200.538
9	600.000	0.036	600.000	0.081	2.113	1772223200.799
10	600.000	-0.011	600.000	0.070	1.615	1772223201.075
11	600.000	0.020	600.000	0.069	2.140	1772223201.376
12	600.000	-0.008	600.001	0.130	1.377	1772223201.596
13	600.000	-0.006	600.001	0.072	1.847	1772223201.867
14	600.000	0.014	600.002	0.042	3.422	1772223202.093
15	600.000	0.026	600.002	0.052	1.350	1772223202.357
16	600.000	-0.025	599.996	0.084	1.214	1772223202.633
17	600.000	-0.027	600.001	0.069	1.401	1772223202.864
18	600.000	-0.037	600.001	0.075	1.405	1772223203.120
19	600.000	-0.002	600.001	0.060	2.109	1772223203.333
20	600.000	0.033	600.001	0.042	1.028	1772223203.612
21	600.000	-0.018	600.001	0.102	1.004	1772223203.834
22	600.000	-0.016	599.997	0.130	2.315	1772223204.031
23	600.000	-0.019	599.999	0.126	1.466	1772223204.301
24	600.000	0.000	600.000	0.116	2.079	1772223204.515
25	600.000	0.008	600.001	0.082	1.917	1772223204.717
26	600.000	-0.013	600.001	0.105	2.211	1772223205.002
27	600.000	-0.016	600.003	0.114	1.320	1772223205.221
28	600.000	0.009	600.000	0.087	1.599	1772223205.481
29	600.000	0.004	600.000	0.082	2.414	1772223205.720
30	600.000	-0.007	599.998	0.061	0.370	1772223205.970
31	600.000	-0.035	600.000	0.063	1.185	1772223206.251
32	600.000	0.018	599.999	0.102	1.004	1772223206.456
33	600.000	-0.022	599.999	0.127	1.797	1772223206.733
34	600.000	0.024	600.001	0.106	2.214	1772223206.985
35	600.000	-0.013	599.998	0.104	1.313	1772223207.234
36	600.000	0.044	599.999	0.044	4.290	1772223207.483
37	600.000	0.039	600.000	0.051	1.258	1772223207.702
38	600.000	0.004	600.002	0.184	1.975	1772223207.925
39	600.000	0.029	600.003	0.128	1.385	1772223208.154
40	600.000	-0.034	599.997	0.068	2.773	1772223208.417
41	600.000	0.019	599.997	0.065	1.500	1772223208.681
42	600.000	0.029	599.999	0.015	1.716	1772223208.915
43	600.000	0.039	599.997	0.023	0.331	1772223209.200
44	600.000	0.026	600.001	0.118	1.411	1772223209.429
45	600.000	0.005	600.002	0.047	0.903	1772223209.671
46	600.000	-0.023	599.999	0.022	1.979	1772223209.957
47	600.000	-0.054	599.999	0.124	1.296	1772223210.168
48	600.000	0.000	599.998	0.140	1.039	1772223210.422
49	600.000	-0.049	600.000	0.101	2.338	1772223210.675
50	600.000	-0.028	599.999	0.087	1.113	1772223210.935
51	600.000	-0.005	599.997	0.095	2.035	1772223211.194
52	600.000	0.015	599.997	0.133	1.030	1772223211.472
53	600.000	0.015	600.000	0.120	1.316	1772223211.688
54	600.000	0.055	599.999	0.121	1.244	1772223211.953
55	600.000	0.005	600.002	0.041	1.180	1772223212.216
56	600.000	0.019	599.998	0.091	1.233	1772223212.466
57	600.000	0.042	600.002	0.054	1.522	1772223212.712
58	600.000	-0.110	599.999	0.043	1.644	1772223212.944
59	600.000	-0.022	599.999	0.059	4.940	1772223213.211
60	600.000	-0.038	600.001	0.150	5.639	1772223213.436
61	600.000	-0.011	600.000	0.082	4.577	1772223213.696
62	600.000	-0.063	600.002	0.073	0.927	1772223213.952
63	600.000	-0.038	600.003	0.090	6.133	1772223214.216
64	600.000	-0.026	599.998	0.187	5.046	1772223214.463
65	600.000	-0.033	600.002	0.106	1.956	1772223214.675
66	600.000	0.042	600.003	0.139	5.476	1772223214.953
67	600.000	0.008	600.002	0.142	5.414	1772223215.206
68	600.000	-0.049	600.003	0.100	1.484	1772223215.457
69	600.000	0.007	599.998	0.145	5.357	1772223215.713
70	600.000	-0.006	599.999	0.102	5.205	1772223215.957
71	600.000	0.016	599.998	0.060	1.080	1772223216.228
72	600.000	-0.010	600.000	0.141	5.870	1772223216.435
73	600.000	-0.035	600.001	0.170	4.882	1772223216.706
74	600.000	0.002	599.998	0.115	2.547	1772223216.943
75	600.000	0.067	600.002	0.134	5.988	1772223217.220
76	600.000	-0.024	600.004	0.269	5.257	1772223217.444
77	600.000	-0.011	599.998	0.077	2.643	1772223217.695
78	600.000	0.009	599.998	0.138	5.904	1772223217.978
79	600.000	-0.047	600.001	0.204	5.313	1772223218.273
80	600.000	0.018	599.995	0.114	5.122	1772223218.494
81	600.000	0.003	599.998	0.127	0.667	1772223218.702
82	600.000	-0.011	600.003	0.201	5.319	1772223218.961
83	600.000	0.019	600.001	0.037	0.254	1772223219.196
84	600.000	-0.003	600.004	0.079	5.421	1772223219.458
85	600.000	-0.037	600.000	0.208	5.029	1772223219.718
86	600.000	0.015	599.997	0.049	3.065	1772223219.941
87	600.000	-0.009	600.000	0.144	5.578	1772223220.212
88	600.000	0.007	599.996	0.153	4.663	1772223220.439
89	600.000	-0.006	600.001	0.067	2.156	1772223220.714
90	600.000	0.025	600.003	0.249	5.355	1772223220.937
91	600.000	-0.063	599.998	0.013	5.857	1772223221.197
92	600.000	0.038	599.999	0.017	0.738	1772223221.456
93	600.000	-0.036	600.002	0.244	5.250	1772223221.681
94	600.000	0.019	599.998	0.103	2.684	1772223221.949
95	600.000	-0.035	599.998	0.114	5.523	1772223222.184
96	600.000	-0.042	600.000	0.176	5.192	1772223222.455
97	600.000	-0.036	599.999	0.106	1.565	1772223222.701
98	600.000	-0.017	599.999	0.158	5.847	1772223222.966
99	600.000	-0.065	600.002	0.260	5.081	1772223223.221
100	600.000	0.024	600.000	0.086	2.791	1772223223.449
101	600.000	-0.002	600.002	0.072	5.960	1772223223.706
102	600.000	-0.003	600.001	0.211	5.143	1772223223.950
103	600.000	0.047	600.002	0.080	2.123	1772223224.208
104	600.000	0.012	600.002	0.138	6.179	1772223224.451
105	600.000	-0.015	599.999	0.241	5.021	1772223224.683
106	600.000	-0.009	600.000	0.088	1.535	1772223224.951
107	600.000	-0.027	599.999	0.181	5.778	1772223225.190
108	600.000	0.003	599.999	0.196	5.302	1772223225.438
109	600.000	0.035	599.998	0.065	3.085	1772223225.720
110	600.000	0.010	600.000	0.092	0.317	1772223225.965
111	600.000	-0.016	599.999	0.257	5.096	1772223226.212
112	600.000	-0.029	600.000	0.098	2.186	1772223226.483
113	600.000	0.034	599.999	0.100	6.108	1772223226.726
114	600.000	0.001	600.002	0.141	4.529	1772223226.953
115	600.000	0.042	599.999	0.131	1.914	1772223227.224
116	600.000	-0.020	599.997	0.234	6.264	1772223227.457
117	600.000	-0.045	600.000	0.217	5.102	1772223227.729
118	600.000	-0.058	600.001	0.073	1.825	1772223227.958
119	600.000	0.015	600.003	0.178	5.706	1772223228.219
120	600.000	0.004	600.000	0.278	4.834	1772223228.479
121	600.000	-0.017	600.000	0.185	1.716	1772223228.687
122	600.000	0.019	600.006	0.237	5.926	1772223228.960
123	600.000	-0.005	600.002	0.208	4.293	1772223229.193
124	600.000	0.012	600.000	0.176	0.808	1772223229.408
125	600.000	-0.041	599.997	0.269	5.159	1772223229.656
126	600.000	-0.001	600.001	0.084	2.375	1772223229.913
127	600.000	0.024	599.997	0.181	0.137	1772223230.187
128	600.000	-0.020	599.995	0.244	4.784	1772223230.424
129	600.000	0.005	599.999	0.109	2.228	1772223230.665
130	600.000	-0.027	599.998	0.108	5.162	1772223230.921
131	600.000	-0.003	599.998	0.326	4.779	1772223231.159
132	600.000	-0.023	600.001	0.155	2.157	1772223231.399
133	600.000	0.014	599.998	0.195	5.921	1772223231.636
134	600.000	0.002	600.002	0.162	4.865	1772223231.901
135	600.000	0.026	599.997	0.121	1.494	1772223232.149
136	600.000	0.011	599.996	0.184	5.951	1772223232.404
137	600.000	-0.012	600.001	0.221	4.570	1772223232.648
138	600.000	0.038	599.998	0.050	2.847	1772223232.912
139	600.000	0.008	599.999	0.102	0.785	1772223233.190
140	600.000	0.025	599.999	0.214	2.398	1772223233.440
141	600.000	-0.021	599.998	0.227	2.296	1772223233.688
142	600.000	-0.010	599.998	0.229	2.716	1772223233.926
143	600.000	-0.029	600.000	0.253	2.307	1772223234.168
144	600.000	0.077	599.999	0.250	1.766	1772223234.414
145	600.000	-0.040	600.000	0.245	2.636	1772223234.678
146	600.000	-0.025	599.998	0.242	2.654	1772223234.930
147	600.000	0.029	600.000	0.226	2.138	1772223235.168
148	600.000	0.020	600.000	0.167	2.914	1772223235.434
149	600.000	-0.051	599.998	0.175	6.008	1772223235.664
150	600.000	-0.000	600.002	0.304	4.764	1772223235.911
151	600.000	-0.015	599.997	0.183	6.076	1772223236.154
152	600.000	-0.016	600.000	0.160	4.347	1772223236.409
153	600.000	-0.014	600.000	0.159	0.059	1772223236.667
154	600.000	-0.023	599.998	0.223	4.471	1772223236.914
155	600.000	0.027	600.003	0.197	0.505	1772223237.159
156	600.000	0.015	600.000	0.159	4.215	1772223237.414
157	600.000	-0.002	600.000	0.275	0.216	1772223237.641
158	600.000	-0.010	600.005	0.280	4.484	1772223237.886
159	600.000	0.023	599.997	0.163	0.255	1772223238.109
160	600.000	0.006	600.001	0.252	4.886	1772223238.384
161	600.000	-0.020	599.999	0.198	0.574	1772223238.618
162	600.000	0.010	600.002	0.267	4.903	1772223238.914
163	600.000	0.038	599.999	0.185	0.475	1772223239.131
164	600.000	0.029	600.001	0.209	4.445	1772223239.406
165	600.000	0.009	599.999	0.207	5.698	1772223239.642
166	600.000	-0.022	599.997	0.199	4.329	1772223239.887
167	600.000	-0.012	600.001	0.214	0.164	1772223240.128
168	600.000	0.016	599.998	0.109	3.560	1772223240.386
169	600.000	0.003	599.999	0.201	5.972	1772223240.651
170	600.000	0.009	600.001	0.217	3.848	1772223240.903
171	600.000	-0.018	599.999	0.179	5.572	1772223241.141
172	600.000	0.025	600.000	0.151	3.542	1772223241.389
173	600.000	0.047	600.001	0.257	5.147	1772223241.657
174	600.000	-0.004	599.997	0.064	1.787	1772223241.895
175	600.000	0.005	600.001	0.173	5.110	1772223242.126
176	600.000	0.001	600.001	0.122	2.466	1772223242.406
177	600.000	0.013	600.000	0.267	5.234	1772223242.643
178	600.000	0.008	600.002	0.110	2.266	1772223242.883
179	600.000	-0.044	600.006	0.209	5.923	1772223243.146
180	600.000	-0.012	600.001	0.190	3.519	1772223243.394
181	600.000	0.018	600.000	0.205	5.892	1772223243.644
182	600.000	0.009	599.997	0.121	3.671	1772223243.887
183	600.000	0.028	600.001	0.273	5.528	1772223244.144
184	600.000	-0.031	599.998	0.114	2.456	1772223244.404
185	600.000	-0.041	599.998	0.261	5.599	1772223244.626
186	600.000	0.032	600.002	0.125	2.584	1772223244.910
187	600.000	-0.012	599.999	0.243	5.542	1772223245.132
188	600.000	-0.021	600.003	0.161	3.245	1772223245.376
189	600.000	0.035	599.998	0.290	5.865	1772223245.607
190	600.000	-0.019	599.999	0.073	2.869	1772223245.908
191	600.000	0.010	599.999	0.330	5.123	1772223246.164
192	600.000	-0.035	599.997	0.171	2.157	1772223246.438
193	600.000	0.003	600.000	0.366	5.039	1772223246.657
194	600.000	0.021	600.004	0.246	1.784	1772223246.933
195	600.000	-0.015	600.002	0.321	5.164	1772223247.166
196	600.000	-0.036	600.001	0.222	2.169	1772223247.442
197	600.000	-0.001	599.999	0.346	4.930	1772223247.690
198	600.000	0.005	600.001	0.210	2.054	1772223247.928
199	600.000	-0.027	600.002	0.371	4.999	1772223248.162
200	600.000	0.017	600.004	0.246	2.011	1772223248.402
201	600.000	-0.014	599.999	0.305	5.328	1772223248.675
202	600.000	0.007	599.999	0.228	1.715	1772223248.905
203	600.000	0.028	599.998	0.319	5.331	1772223249.181
204	600.000	-0.026	599.997	0.119	1.911	1772223249.435
205	600.000	-0.018	600.001	0.419	5.029	1772223249.648
206	600.000	0.014	600.000	0.237	2.065	1772223249.907
207	600.000	-0.008	600.002	0.443	5.322	1772223250.131
208	600.000	0.047	599.999	0.192	2.119	1772223250.388
209	600.000	-0.019	600.001	0.297	5.385	1772223250.635
210	600.000	0.024	599.998	0.127	2.015	1772223250.886
211	600.000	0.007	599.999	0.329	5.134	1772223251.133
212	600.000	0.026	600.001	0.206	1.948	1772223251.422
213	600.000	0.012	599.998	0.312	4.928	1772223251.644
214	600.000	0.025	600.001	0.218	1.748	1772223251.873
215	600.000	0.010	599.997	0.344	5.145	1772223252.146
216	600.000	-0.019	600.000	0.222	1.304	1772223252.394
217	600.000	-0.014	600.003	0.324	5.046	1772223252.642
218	600.000	-0.040	600.000	0.289	1.619	1772223252.891
219	600.000	-0.001	599.999	0.460	5.164	1772223253.128
220	600.000	-0.017	599.997	0.258	1.865	1772223253.400
221	600.000	-0.042	599.997	0.371	4.997	1772223253.637
222	600.000	0.014	600.001	0.304	1.587	1772223253.898
223	600.000	0.056	599.997	0.348	5.043	1772223254.153
224	600.000	0.007	600.000	0.239	1.803	1772223254.409
225	600.000	0.019	600.001	0.343	5.150	1772223254.644
226	600.000	-0.019	599.997	0.254	2.101	1772223254.877
227	600.000	-0.002	600.000	0.399	4.912	1772223255.140
228	600.000	-0.004	600.002	0.154	1.034	1772223255.404
229	600.000	0.018	600.000	0.321	4.676	1772223255.694
230	600.000	-0.010	600.002	0.278	0.858	1772223255.958
231	600.000	0.008	600.000	0.307	4.495	1772223256.209
232	600.000	0.007	599.999	0.247	1.046	1772223256.428
233	600.000	0.032	599.999	0.399	4.812	1772223256.686
234	600.000	0.039	600.000	0.220	0.847	1772223256.962
235	600.000	0.017	600.005	0.297	4.682	1772223257.212
236	600.000	-0.023	600.002	0.247	0.940	1772223257.445
237	600.000	-0.003	599.999	0.297	4.699	1772223257.688
238	600.000	0.000	600.000	0.220	0.881	1772223257.950
239	600.000	0.015	600.002	0.375	4.822	1772223258.188
240	600.000	-0.032	600.000	0.241	1.365	1772223258.433
241	600.000	-0.031	600.000	0.349	4.575	1772223258.657
242	600.000	-0.008	600.001	0.221	1.183	1772223258.922
243	600.000	-0.007	599.999	0.346	4.753	1772223259.155
244	600.000	0.032	599.999	0.301	1.200	1772223259.401
245	600.000	0.015	599.998	0.250	4.585	1772223259.674
246	600.000	-0.001	600.000	0.170	0.465	1772223259.925
247	600.000	-0.017	600.002	0.331	4.760	1772223260.169
248	600.000	0.001	600.000	0.210	0.906	1772223260.435
249	600.000	-0.025	600.000	0.408	4.516	1772223260.672
250	600.000	-0.040	599.999	0.315	0.977	1772223260.918
251	600.000	0.027	599.999	0.332	4.596	1772223261.185
252	600.000	-0.004	600.001	0.219	1.000	1772223261.433
253	600.000	0.013	599.998	0.415	4.482	1772223261.661
254	600.000	0.036	599.997	0.213	1.143	1772223261.923
255	600.000	0.014	600.003	0.331	4.734	1772223262.172
256	600.000	-0.009	600.001	0.188	0.461	1772223262.445
257	600.000	-0.002	599.997	0.271	4.427	1772223262.668
258	600.000	0.007	599.997	0.251	1.107	1772223262.900
259	600.000	-0.001	600.002	0.317	4.681	1772223263.169
260	600.000	-0.018	600.000	0.192	0.319	1772223263.421
261	600.000	-0.009	599.998	0.357	4.600	1772223263.675
262	600.000	0.054	600.001	0.169	0.592	1772223263.924
263	600.000	-0.004	600.000	0.306	4.333	1772223264.184
264	600.000	0.001	599.996	0.158	0.529	1772223264.416
265	600.000	-0.045	599.999	0.325	4.590	1772223264.645
266	600.000	0.024	600.000	0.254	1.030	1772223264.919
267	600.000	0.022	599.999	0.285	4.418	1772223265.168
268	600.000	0.009	600.001	0.144	6.187	1772223265.436
269	600.000	0.005	599.999	0.130	4.306	1772223265.693
270	600.000	-0.009	600.001	0.146	0.259	1772223265.911
271	600.000	0.011	600.001	0.282	4.345	1772223266.161
272	600.000	0.033	600.000	0.249	0.646	1772223266.411
273	600.000	-0.054	599.999	0.267	4.266	1772223266.676
274	600.000	0.004	600.000	0.238	0.707	1772223266.903
275	600.000	-0.007	600.000	0.256	4.321	1772223267.172
276	600.000	-0.002	599.996	0.244	0.324	1772223267.426
277	600.000	0.002	600.001	0.261	4.312	1772223267.667
278	600.000	-0.012	600.001	0.188	0.454	1772223267.897
279	600.000	-0.000	600.000	0.345	4.778	1772223268.142
280	600.000	-0.046	600.001	0.239	0.430	1772223268.418
281	600.000	0.031	599.998	0.283	4.174	1772223268.661
282	600.000	-0.013	600.000	0.169	0.408	1772223268.915
283	600.000	-0.037	600.000	0.258	4.517	1772223269.149
284	600.000	0.001	600.002	0.312	0.723	1772223269.349
285	600.000	-0.004	600.002	0.322	4.663	1772223269.620
286	600.000	-0.027	600.000	0.230	0.765	1772223269.888
287	600.000	-0.036	599.999	0.292	4.210	1772223270.172
288	600.000	0.001	600.002	0.259	0.350	1772223270.407
289	600.000	-0.036	600.002	0.305	4.303	1772223270.672
290	600.000	-0.064	599.996	0.140	0.270	1772223270.919
291	600.000	0.004	600.001	0.290	3.931	1772223271.183
292	600.000	0.012	600.000	0.289	0.021	1772223271.439
293	600.000	-0.010	599.999	0.213	3.829	1772223271.678
294	600.000	0.010	600.000	0.219	6.101	1772223271.937
295	600.000	0.004	599.999	0.207	3.622	1772223272.165
296	600.000	-0.004	600.002	0.257	0.141	1772223272.430
297	600.000	-0.008	600.000	0.256	3.830	1772223272.665
298	600.000	-0.028	600.000	0.204	5.947	1772223272.935
299	600.000	-0.018	600.004	0.291	3.704	1772223273.177
300	600.000	-0.028	600.002	0.220	0.014	1772223273.409
301	600.000	0.017	600.004	0.112	3.478	1772223273.677
302	600.000	-0.036	599.998	0.255	0.105	1772223273.910
303	600.000	0.025	599.997	0.267	4.018	1772223274.180
304	600.000	-0.014	599.999	0.140	5.774	1772223274.425
305	600.000	-0.027	600.001	0.233	3.718	1772223274.680
306	600.000	0.003	599.999	0.231	5.573	1772223274.934
307	600.000	0.021	600.000	0.199	3.769	1772223275.180
308	600.000	-0.015	600.002	0.201	0.095	1772223275.416
309	600.000	0.018	600.000	0.378	4.105	1772223275.659
310	600.000	0.024	600.004	0.253	6.134	1772223275.928
311	600.000	0.035	599.996	0.206	3.785	1772223276.175
312	600.000	-0.014	599.999	0.277	5.773	1772223276.416
313	600.000	0.034	600.002	0.125	2.441	1772223276.659
314	600.000	-0.001	599.999	0.302	5.378	1772223276.932
315	600.000	-0.028	600.000	0.206	3.116	1772223277.169
316	600.000	0.026	600.000	0.258	5.978	1772223277.405
317	600.000	-0.020	599.999	0.141	4.112	1772223277.667
318	600.000	0.050	600.000	0.205	5.725	1772223277.917
319	600.000	-0.022	600.002	0.163	3.482	1772223278.167
320	600.000	-0.037	600.004	0.274	5.840	1772223278.447
321	600.000	0.053	600.002	0.331	3.628	1772223278.665
322	600.000	0.012	600.001	0.190	5.726	1772223278.924
323	600.000	-0.038	600.001	0.165	3.057	1772223279.172
324	600.000	0.005	599.999	0.220	5.601	1772223279.441
325	600.000	0.028	600.000	0.137	2.993	1772223279.686
326	600.000	-0.022	599.999	0.190	5.872	1772223279.945
327	600.000	0.003	599.998	0.181	3.401	1772223280.181
328	600.000	0.006	599.999	0.301	5.780	1772223280.460
329	600.000	-0.002	600.001	0.181	2.620	1772223280.692
330	600.000	0.009	600.001	0.329	5.753	1772223280.922
331	600.000	-0.074	600.001	0.121	3.565	1772223281.174
332	600.000	0.040	599.999	0.234	5.509	1772223281.413
333	600.000	0.031	599.999	0.169	3.298	1772223281.689
334	600.000	0.056	600.001	0.308	5.996	1772223281.943
335	600.000	0.028	599.996	0.142	3.647	1772223282.188
336	600.000	0.015	599.999	0.260	5.214	1772223282.440
337	600.000	0.012	600.000	0.294	3.351	1772223282.664
338	600.000	-0.007	600.002	0.252	5.480	1772223282.932
339	600.000	0.028	600.003	0.128	2.734	1772223283.158
340	600.000	0.008	600.001	0.189	5.775	1772223283.404
341	600.000	-0.020	600.001	0.296	4.165	1772223283.626
342	600.000	-0.027	600.001	0.179	6.243	1772223283.868
343	600.000	-0.031	600.002	0.246	4.134	1772223284.118
344	600.000	-0.024	599.999	0.241	6.118	1772223284.403
345	600.000	-0.016	600.001	0.263	4.199	1772223284.613
346	600.000	0.007	600.002	0.238	0.464	1772223284.886
347	600.000	0.031	600.002	0.255	4.328	1772223285.112
348	600.000	0.038	600.001	0.185	6.130	1772223285.385
349	600.000	0.023	600.001	0.236	4.133	1772223285.615
350	600.000	-0.019	599.997	0.211	6.254	1772223285.886
351	600.000	-0.003	600.001	0.232	3.941	1772223286.118
352	600.000	0.013	599.998	0.203	0.310	1772223286.347
353	600.000	-0.009	599.998	0.259	4.227	1772223286.632
354	600.000	0.003	600.000	0.203	0.272	1772223286.858
355	600.000	-0.064	599.999	0.276	3.957	1772223287.133
356	600.000	-0.007	599.999	0.193	6.139	1772223287.362
357	600.000	0.029	599.998	0.241	4.080	1772223287.624
358	600.000	0.015	600.001	0.229	5.954	1772223287.879
359	600.000	0.085	600.000	0.114	4.043	1772223288.145
360	600.000	0.044	600.001	0.186	5.707	1772223288.368
361	600.000	-0.024	600.003	0.213	3.863	1772223288.595
362	600.000	-0.031	599.998	0.182	6.149	1772223288.877
363	600.000	0.035	599.997	0.204	3.812	1772223289.108
364	600.000	0.011	599.997	0.217	0.189	1772223289.359
365	600.000	-0.021	599.998	0.217	3.883	1772223289.618
366	600.000	0.012	599.999	0.177	5.775	1772223289.867
367	600.000	-0.025	599.998	0.265	4.059	1772223290.114
368	600.000	0.020	600.002	0.195	0.268	1772223290.347
369	600.000	-0.044	600.003	0.198	3.949	1772223290.628
370	600.000	0.006	600.002	0.243	5.620	1772223290.896
371	600.000	0.031	600.001	0.118	3.259	1772223291.129
372	600.000	-0.003	599.998	0.284	5.679	1772223291.368
373	600.000	0.005	600.002	0.131	3.679	1772223291.628
374	600.000	0.022	600.002	0.298	5.462	1772223291.875
375	600.000	-0.022	599.998	0.207	3.730	1772223292.130
376	600.000	0.005	600.002	0.244	5.854	1772223292.388
377	600.000	0.029	600.000	0.181	3.241	1772223292.637
378	600.000	0.036	599.997	0.193	5.677	1772223292.866
379	600.000	-0.029	599.999	0.208	3.702	1772223293.122
380	600.000	-0.040	599.998	0.220	5.791	1772223293.393
381	600.000	0.059	600.000	0.181	3.308	1772223293.619
382	600.000	-0.013	599.999	0.322	5.621	1772223293.914
383	600.000	0.009	600.001	0.087	2.572	1772223294.153
384	600.000	0.002	600.000	0.324	5.725	1772223294.398
385	600.000	0.012	600.000	0.164	2.384	1772223294.649
386	600.000	0.041	600.000	0.317	5.739	1772223294.908
387	600.000	0.005	600.002	0.236	3.159	1772223295.137
388	600.000	0.014	600.004	0.274	5.482	1772223295.393
389	600.000	0.031	599.999	0.207	2.872	1772223295.651
390	600.000	0.028	600.000	0.291	5.435	1772223295.913
391	600.000	-0.032	600.001	0.224	2.461	1772223296.130
392	600.000	-0.055	599.999	0.295	5.465	1772223296.382
393	600.000	0.007	599.999	0.130	3.013	1772223296.642
394	600.000	0.022	600.001	0.275	5.836	1772223296.878
395	600.000	0.004	599.995	0.182	2.818	1772223297.142
396	600.000	-0.024	599.998	0.293	5.515	1772223297.391
397	600.000	-0.010	599.998	0.138	3.348	1772223297.631
398	600.000	0.023	599.998	0.270	5.715	1772223297.860
399	600.000	-0.030	600.001	0.121	4.019	1772223298.086
400	600.000	0.008	600.001	0.200	6.043	1772223298.355
401	600.000	0.004	599.997	0.297	4.203	1772223298.555
402	600.000	-0.016	600.000	0.233	0.126	1772223298.828
403	600.000	0.027	600.005	0.244	3.761	1772223299.084
404	600.000	-0.006	599.999	0.196	0.046	1772223299.343
405	600.000	0.041	600.001	0.304	4.169	1772223299.577
406	600.000	0.021	600.001	0.261	0.168	1772223299.828
407	600.000	0.010	599.997	0.201	3.623	1772223300.072
408	600.000	0.017	599.998	0.255	0.053	1772223300.327
409	600.000	-0.025	600.001	0.201	3.841	1772223300.582
410	600.000	-0.027	600.001	0.291	6.128	1772223300.815
411	600.000	0.010	599.999	0.231	3.882	1772223301.096
412	600.000	-0.025	600.002	0.264	5.963	1772223301.314
413	600.000	0.014	599.999	0.271	4.167	1772223301.590
414	600.000	-0.003	600.002	0.337	5.479	1772223301.855
415	600.000	0.026	599.999	0.229	2.945	1772223302.108
416	600.000	-0.029	599.999	0.339	5.782	1772223302.335
417	600.000	0.004	600.004	0.123	3.175	1772223302.573
418	600.000	0.020	600.001	0.260	5.623	1772223302.833
419	600.000	0.021	600.000	0.164	3.082	1772223303.085
420	600.000	-0.017	600.000	0.321	5.916	1772223303.326
421	600.000	0.020	600.002	0.099	2.505	1772223303.593
422	600.000	-0.004	599.999	0.309	5.424	1772223303.823
423	600.000	0.042	599.999	0.143	2.545	1772223304.093
424	600.000	-0.011	600.002	0.321	5.673	1772223304.307
425	600.000	0.001	599.999	0.202	3.927	1772223304.510
426	600.000	-0.014	600.001	0.184	5.882	1772223304.793
427	600.000	-0.016	599.999	0.220	3.541	1772223305.051
428	600.000	-0.024	599.997	0.255	5.902	1772223305.318
429	600.000	0.039	600.000	0.120	3.062	1772223305.536
430	600.000	0.025	600.003	0.270	6.085	1772223305.797
431	600.000	0.007	600.001	0.228	3.209	1772223306.047
432	600.000	-0.004	600.002	0.362	5.879	1772223306.299
433	600.000	-0.006	599.997	0.131	3.084	1772223306.560
434	600.000	-0.012	599.996	0.376	5.473	1772223306.805
435	600.000	-0.014	599.999	0.183	3.415	1772223307.073
436	600.000	0.023	599.999	0.364	5.424	1772223307.280
437	600.000	0.002	600.000	0.140	3.139	1772223307.551
438	600.000	-0.033	600.000	0.303	5.722	1772223307.796
439	600.000	-0.008	600.002	0.205	2.717	1772223308.046
440	600.000	0.021	600.001	0.313	5.270	1772223308.302
441	600.000	0.029	599.999	0.149	2.609	1772223308.546
442	600.000	-0.031	599.999	0.300	5.643	1772223308.814
443	600.000	-0.041	600.002	0.187	2.664	1772223309.027
444	600.000	-0.031	600.001	0.343	5.706	1772223309.302
445	600.000	-0.034	600.001	0.167	1.985	1772223309.523
446	600.000	-0.028	600.000	0.275	5.458	1772223309.795
447	600.000	0.017	600.000	0.142	2.945	1772223310.044
448	600.000	-0.027	600.000	0.398	5.584	1772223310.310
449	600.000	0.029	600.000	0.251	1.831	1772223310.558
450	600.000	-0.033	599.997	0.350	5.494	1772223310.778
451	600.000	-0.002	600.002	0.143	2.479	1772223311.059
452	600.000	-0.044	600.000	0.305	5.468	1772223311.296
453	600.000	-0.037	599.998	0.160	2.603	1772223311.569
454	600.000	0.027	600.000	0.411	5.409	1772223311.822
455	600.000	0.050	599.996	0.205	1.856	1772223312.106
456	600.000	0.013	600.000	0.427	5.180	1772223312.345
457	600.000	0.017	600.001	0.318	2.024	1772223312.588
458	600.000	0.029	599.999	0.447	5.000	1772223312.843
459	600.000	0.001	600.000	0.298	1.688	1772223313.090
460	600.000	-0.029	600.000	0.390	5.097	1772223313.334
461	600.000	-0.000	599.999	0.264	1.856	1772223313.568
462	600.000	0.018	599.998	0.431	5.167	1772223313.842
463	600.000	0.043	599.999	0.329	1.595	1772223314.089
464	600.000	0.035	600.000	0.406	5.256	1772223314.361
465	600.000	-0.033	599.996	0.249	1.640	1772223314.605
466	600.000	-0.010	600.003	0.397	5.061	1772223314.839
467	600.000	0.046	599.999	0.276	1.711	1772223315.074
468	600.000	0.057	599.998	0.297	5.326	1772223315.371
469	600.000	-0.070	600.000	0.295	1.557	1772223315.590
470	600.000	-0.002	599.999	0.410	5.260	1772223315.846
471	600.000	0.033	600.002	0.345	1.435	1772223316.109
472	600.000	-0.035	599.999	0.401	4.956	1772223316.352
473	600.000	0.008	600.001	0.234	1.899	1772223316.596
474	600.000	-0.028	599.998	0.379	5.179	1772223316.837
475	600.000	0.033	599.999	0.216	2.044	1772223317.063
476	600.000	0.002	600.001	0.362	5.382	1772223317.290
477	600.000	0.014	600.002	0.217	2.983	1772223317.547
478	600.000	-0.027	600.001	0.372	5.396	1772223317.773
479	600.000	0.042	600.001	0.107	2.350	1772223318.035
480	600.000	0.037	600.000	0.411	5.469	1772223318.282
481	600.000	0.046	599.998	0.170	2.393	1772223318.537
482	600.000	0.071	600.002	0.344	5.203	1772223318.785
483	600.000	-0.009	600.000	0.245	2.627	1772223319.031
484	600.000	0.006	600.005	0.410	5.340	1772223319.298
485	600.000	-0.016	600.000	0.242	1.829	1772223319.529
486	600.000	0.043	600.005	0.376	5.433	1772223319.803
487	600.000	0.005	599.999	0.267	1.796	1772223320.036
488	600.000	-0.024	599.999	0.412	5.227	1772223320.278
489	600.000	-0.015	600.003	0.332	2.429	1772223320.542
490	600.000	-0.029	599.999	0.381	5.227	1772223320.779
491	600.000	-0.001	599.997	0.135	2.266	1772223321.035
492	600.000	-0.005	600.002	0.361	5.123	1772223321.261
493	600.000	-0.005	600.000	0.144	2.604	1772223321.538
494	600.000	0.027	600.001	0.416	5.230	1772223321.814
495	600.000	0.007	599.999	0.279	1.987	1772223322.035
496	600.000	-0.017	600.002	0.306	5.289	1772223322.275
497	600.000	0.006	599.999	0.250	2.173	1772223322.545
498	600.000	0.072	599.998	0.431	5.174	1772223322.798
499	600.000	-0.020	600.002	0.226	1.776	1772223323.033
500	600.000	0.032	600.000	0.373	5.213	1772223323.277
501	600.000	-0.030	599.997	0.205	2.096	1772223323.524
502	600.000	0.008	599.997	0.439	5.149	1772223323.790
503	600.000	-0.020	600.001	0.198	2.282	1772223324.021
504	600.000	0.006	600.002	0.385	5.078	1772223324.292
505	600.000	-0.011	600.000	0.193	1.651	1772223324.537
506	600.000	-0.009	600.000	0.386	5.194	1772223324.781
507	600.000	0.034	600.000	0.326	1.985	1772223325.018
508	600.000	0.001	599.998	0.354	5.579	1772223325.252
509	600.000	-0.042	599.997	0.261	1.943	1772223325.510
510	600.000	0.022	600.000	0.436	5.270	1772223325.788
511	600.000	-0.009	600.001	0.279	2.225	1772223326.052
512	600.000	-0.018	599.998	0.439	4.830	1772223326.313
513	600.000	-0.045	600.000	0.237	1.680	1772223326.573
514	600.000	0.058	600.003	0.455	5.011	1772223326.804
515	600.000	-0.008	600.000	0.259	1.656	1772223327.082
516	600.000	0.015	600.001	0.436	4.992	1772223327.303
517	600.000	0.029	600.002	0.227	1.587	1772223327.549
518	600.000	-0.035	600.002	0.359	5.035	1772223327.811
519	600.000	-0.005	599.999	0.289	1.274	1772223328.062
520	600.000	-0.038	600.000	0.361	4.972	1772223328.325
521	600.000	0.010	600.002	0.286	1.498	1772223328.556
522	600.000	-0.017	600.005	0.414	4.915	1772223328.828
523	600.000	-0.004	599.996	0.240	1.825	1772223329.067
524	600.000	-0.019	600.000	0.468	5.078	1772223329.311
525	600.000	-0.033	600.001	0.281	1.911	1772223329.549
526	600.000	0.029	600.004	0.428	5.157	1772223329.802
527	600.000	-0.013	599.998	0.234	1.571	1772223330.076
528	600.000	-0.031	599.999	0.459	4.956	1772223330.310
529	600.000	-0.026	600.002	0.319	1.466	1772223330.546
530	600.000	0.002	599.998	0.382	4.955	1772223330.821
531	600.000	-0.028	599.997	0.264	1.514	1772223331.065
532	600.000	-0.037	600.001	0.376	4.970	1772223331.321
533	600.000	-0.013	600.001	0.276	1.514	1772223331.563
534	600.000	-0.012	600.000	0.500	4.785	1772223331.813
535	600.000	0.032	600.003	0.227	1.670	1772223332.060
536	600.000	0.015	599.999	0.372	5.239	1772223332.324
537	600.000	-0.009	599.998	0.245	1.388	1772223332.588
538	600.000	-0.041	600.003	0.428	5.191	1772223332.810
539	600.000	-0.023	599.998	0.241	1.157	1772223333.057
540	600.000	-0.006	600.004	0.426	5.005	1772223333.315
541	600.000	0.020	599.999	0.180	1.565	1772223333.580
542	600.000	-0.032	600.001	0.431	4.829	1772223333.811
543	600.000	-0.045	600.000	0.316	1.533	1772223334.060
544	600.000	-0.035	599.999	0.398	5.059	1772223334.309
545	600.000	-0.016	599.999	0.225	1.645	1772223334.555
546	600.000	0.014	600.002	0.325	4.923	1772223334.841
547	600.000	-0.031	600.000	0.236	1.417	1772223335.065
548	600.000	0.001	600.000	0.384	4.888	1772223335.323
549	600.000	0.016	600.001	0.154	1.624	1772223335.574
550	600.000	0.012	600.001	0.401	4.946	1772223335.836
551	600.000	0.003	599.999	0.249	0.893	1772223336.056
552	600.000	0.022	600.002	0.448	4.764	1772223336.325
553	600.000	-0.019	600.000	0.244	0.936	1772223336.575
554	600.000	-0.033	600.001	0.421	4.899	1772223336.816
555	600.000	-0.007	600.004	0.269	1.314	1772223337.071
556	600.000	-0.001	599.998	0.372	4.740	1772223337.329
557	600.000	0.031	600.000	0.199	1.259	1772223337.579
558	600.000	-0.005	600.000	0.388	5.039	1772223337.843
559	600.000	0.026	600.001	0.295	1.255	1772223338.068
560	600.000	0.037	599.999	0.323	4.691	1772223338.330
561	600.000	0.021	600.001	0.213	1.437	1772223338.553
562	600.000	0.002	600.000	0.350	4.767	1772223338.836
563	600.000	0.009	600.001	0.182	1.644	1772223339.066
564	600.000	0.012	600.001	0.367	4.717	1772223339.326
565	600.000	0.057	600.002	0.235	1.260	1772223339.551
566	600.000	-0.010	600.002	0.384	4.881	1772223339.801
567	600.000	-0.009	599.999	0.318	1.366	1772223340.015
568	600.000	-0.054	600.001	0.342	5.048	1772223340.273
569	600.000	-0.017	600.000	0.255	1.770	1772223340.504
570	600.000	-0.031	600.000	0.345	4.961	1772223340.778
571	600.000	0.013	600.002	0.237	1.567	1772223340.988
572	600.000	0.006	600.002	0.388	4.764	1772223341.282
573	600.000	0.050	600.001	0.331	1.479	1772223341.509
574	600.000	0.018	599.998	0.442	4.987	1772223341.759
575	600.000	-0.019	600.001	0.189	1.475	1772223342.023
576	600.000	0.038	599.999	0.395	4.976	1772223342.260
577	600.000	0.028	599.999	0.324	1.411	1772223342.494
578	600.000	0.026	600.000	0.376	5.207	1772223342.733
579	600.000	0.062	600.001	0.194	1.824	1772223343.034
580	600.000	-0.014	600.000	0.346	4.854	1772223343.254
581	600.000	-0.043	599.999	0.272	2.169	1772223343.501
582	600.000	0.046	600.001	0.335	4.862	1772223343.778
583	600.000	-0.000	599.995	0.253	1.264	1772223344.022
584	600.000	-0.031	599.999	0.410	4.949	1772223344.259
585	600.000	0.002	599.998	0.204	1.328	1772223344.493
586	600.000	-0.007	600.003	0.354	4.969	1772223344.759
587	600.000	0.018	599.997	0.186	1.452	1772223345.015
588	600.000	0.012	599.999	0.391	4.570	1772223345.269
589	600.000	0.024	600.000	0.235	0.888	1772223345.512
590	600.000	0.020	600.000	0.449	4.923	1772223345.758
591	600.000	-0.009	600.003	0.259	1.345	1772223346.002
592	600.000	-0.024	599.999	0.419	4.881	1772223346.248
593	600.000	0.035	600.000	0.192	1.539	1772223346.507
594	600.000	-0.027	600.000	0.348	4.896	1772223346.735
595	600.000	0.024	599.999	0.290	1.646	1772223346.982
596	600.000	-0.040	600.003	0.318	4.621	1772223347.271
597	600.000	-0.032	600.000	0.222	1.050	1772223347.510
598	600.000	-0.045	599.999	0.334	4.528	1772223347.752
599	600.000	0.015	599.998	0.170	1.422	1772223348.019
600	600.000	0.017	600.000	0.279	4.749	1772223348.272
601	600.000	0.005	599.998	0.237	0.969	1772223348.524
602	600.000	0.037	599.998	0.319	4.290	1772223348.773
603	600.000	0.053	599.999	0.203	1.146	1772223348.997
604	600.000	-0.029	599.996	0.328	4.631	1772223349.276
605	600.000	-0.050	599.998	0.210	0.858	1772223349.511
606	600.000	0.006	600.002	0.349	4.609	1772223349.761
607	600.000	-0.021	599.999	0.193	1.675	1772223350.001
608	600.000	-0.006	600.001	0.290	4.622	1772223350.269
609	600.000	-0.018	600.001	0.238	1.011	1772223350.512
610	600.000	-0.017	599.997	0.375	4.576	1772223350.744
611	600.000	0.003	599.998	0.142	1.176	1772223351.006
612	600.000	0.006	599.998	0.319	4.462	1772223351.270
613	600.000	-0.001	600.001	0.209	0.646	1772223351.520
614	600.000	-0.021	600.004	0.273	4.395	1772223351.749
615	600.000	0.024	600.000	0.143	0.885	1772223352.020
616	600.000	0.001	600.002	0.261	4.225	1772223352.277
617	600.000	-0.019	599.999	0.156	0.457	1772223352.511
618	600.000	0.034	600.000	0.272	4.641	1772223352.767
619	600.000	0.008	600.001	0.158	6.205	1772223352.998
620	600.000	0.021	600.000	0.231	4.663	1772223353.256
621	600.000	-0.024	599.997	0.164	0.472	1772223353.508
622	600.000	-0.004	600.001	0.195	4.254	1772223353.787
623	600.000	0.004	600.001	0.213	0.481	1772223354.019
624	600.000	-0.009	599.999	0.224	4.258	1772223354.246
625	600.000	0.015	600.000	0.114	0.179	1772223354.525
626	600.000	-0.001	600.001	0.255	4.013	1772223354.760
627	600.000	0.018	600.000	0.148	0.576	1772223355.018
628	600.000	-0.018	600.003	0.233	3.860	1772223355.244
629	600.000	0.000	599.999	0.167	0.266	1772223355.507
630	600.000	0.028	600.001	0.213	3.973	1772223355.769
631	600.000	-0.003	600.001	0.136	0.187	1772223355.991
632	600.000	0.002	600.002	0.148	4.210	1772223356.262
633	600.000	-0.011	600.000	0.170	5.507	1772223356.518
634	600.000	0.099	599.998	0.097	3.284	1772223356.774
635	600.000	0.029	600.000	0.159	6.231	1772223357.008
636	600.000	0.009	599.997	0.207	3.993	1772223357.264
637	600.000	-0.009	600.000	0.100	0.477	1772223357.509
638	600.000	0.012	599.998	0.205	4.189	1772223357.741
639	600.000	0.004	600.002	0.118	5.867	1772223358.022
640	600.000	0.019	600.003	0.140	3.460	1772223358.253
641	600.000	-0.001	599.998	0.129	5.880	1772223358.522
642	600.000	-0.019	600.001	0.175	3.812	1772223358.760
643	600.000	-0.005	599.999	0.134	0.053	1772223359.014
644	600.000	0.033	599.999	0.013	1.638	1772223359.263
645	600.000	0.004	599.996	0.117	5.976	1772223359.500
646	600.000	0.017	599.999	0.130	3.520	1772223359.772
647	600.000	0.012	600.000	0.164	5.653	1772223360.012
648	600.000	0.004	600.001	0.191	3.255	1772223360.257
649	600.000	-0.025	600.001	0.235	5.940	1772223360.485
650	600.000	-0.016	600.000	0.127	3.683	1772223360.758
651	600.000	0.014	599.997	0.333	5.839	1772223361.011
652	600.000	-0.028	599.999	0.173	2.691	1772223361.252
653	600.000	-0.044	600.001	0.247	5.749	1772223361.514
654	600.000	-0.008	600.002	0.193	3.467	1772223361.730
655	600.000	-0.034	600.000	0.197	0.120	1772223361.982
656	600.000	0.011	600.004	0.215	4.227	1772223362.215
657	600.000	-0.018	600.001	0.148	0.093	1772223362.436
658	600.000	-0.008	600.001	0.223	4.500	1772223362.725
659	600.000	-0.051	599.998	0.188	5.937	1772223362.981
660	600.000	0.024	600.001	0.184	3.988	1772223363.249
661	600.000	0.025	599.999	0.257	5.739	1772223363.479
662	600.000	-0.012	600.002	0.141	3.391	1772223363.757
663	600.000	0.004	600.002	0.224	5.725	1772223363.993
664	600.000	-0.009	599.999	0.207	3.902	1772223364.235
665	600.000	-0.055	600.001	0.199	6.049	1772223364.495
666	600.000	0.024	600.005	0.096	3.470	1772223364.727
667	600.000	-0.021	599.998	0.086	6.275	1772223364.992
668	600.000	0.021	600.003	0.102	3.087	1772223365.233
669	600.000	-0.012	599.997	0.148	6.135	1772223365.485
670	600.000	-0.027	600.002	0.141	3.196	1772223365.721
671	600.000	-0.018	599.997	0.159	5.904	1772223365.978
672	600.000	-0.033	599.997	0.130	3.159	1772223366.246
673	600.000	0.001	599.998	0.230	5.890	1772223366.463
674	600.000	0.034	600.001	0.235	4.111	1772223366.743
675	600.000	0.058	600.001	0.224	5.705	1772223366.974
676	600.000	0.003	599.999	0.146	3.273	1772223367.241
677	600.000	0.024	600.002	0.231	6.008	1772223367.471
678	600.000	0.003	599.999	0.167	3.907	1772223367.719
679	600.000	0.014	599.997	0.171	5.468	1772223367.996
680	600.000	-0.012	600.003	0.100	2.507	1772223368.248
681	600.000	0.008	600.000	0.278	5.745	1772223368.500
682	600.000	-0.001	599.999	0.093	3.658	1772223368.722
683	600.000	0.005	599.999	0.169	5.692	1772223368.998
684	600.000	-0.010	600.004	0.112	2.998	1772223369.233
685	600.000	-0.026	600.002	0.257	5.524	1772223369.512
686	600.000	0.049	599.999	0.169	2.583	1772223369.738
687	600.000	0.030	600.001	0.194	6.110	1772223369.956
688	600.000	0.061	600.000	0.219	3.992	1772223370.229
689	600.000	-0.022	600.000	0.156	5.860	1772223370.462
690	600.000	-0.026	599.998	0.135	3.639	1772223370.736
691	600.000	-0.013	599.999	0.161	5.833	1772223370.974
692	600.000	0.027	599.998	0.274	3.669	1772223371.234
693	600.000	-0.030	599.996	0.223	5.837	1772223371.488
694	600.000	0.001	600.003	0.111	3.597	1772223371.744
695	600.000	0.028	599.998	0.204	5.845	1772223371.986
696	600.000	0.003	600.000	0.127	3.215	1772223372.255
697	600.000	0.018	600.001	0.258	5.576	1772223372.498
698	600.000	0.015	600.001	0.138	2.139	1772223372.740
699	600.000	-0.021	600.002	0.223	5.576	1772223372.990
700	600.000	-0.014	600.001	0.157	3.535	1772223373.232
701	600.000	0.005	600.000	0.207	5.948	1772223373.482
702	600.000	0.027	599.999	0.125	2.855	1772223373.743
703	600.000	-0.014	599.999	0.178	5.827	1772223373.980
704	600.000	0.004	599.998	0.187	3.881	1772223374.228
705	600.000	-0.003	599.999	0.168	5.966	1772223374.457
706	600.000	0.022	599.998	0.196	3.635	1772223374.740
707	600.000	-0.017	600.004	0.192	5.251	1772223374.978
708	600.000	-0.006	600.002	0.176	3.396	1772223375.215
709	600.000	-0.029	599.998	0.218	5.559	1772223375.477
710	600.000	0.010	600.001	0.124	3.288	1772223375.737
711	600.000	0.027	600.003	0.223	5.649	1772223375.990
712	600.000	0.012	599.999	0.120	2.916	1772223376.232
713	600.000	-0.047	600.002	0.220	5.503	1772223376.482
714	600.000	-0.001	600.000	0.151	3.209	1772223376.737
715	600.000	0.008	599.997	0.235	5.124	1772223376.989
716	600.000	-0.003	600.000	0.144	3.409	1772223377.223
717	600.000	0.008	599.996	0.255	5.534	1772223377.491
718	600.000	0.055	599.999	0.161	2.821	1772223377.731
719	600.000	-0.016	600.003	0.220	5.388	1772223377.971
720	600.000	0.011	600.004	0.095	2.672	1772223378.233
721	600.000	0.002	600.004	0.204	5.536	1772223378.461
722	600.000	0.021	600.001	0.101	3.635	1772223378.728
723	600.000	0.021	600.002	0.308	5.356	1772223379.011
724	600.000	0.005	600.000	0.198	1.864	1772223379.223
725	600.000	0.013	600.003	0.257	5.498	1772223379.479
726	600.000	-0.014	600.001	0.102	3.287	1772223379.710
727	600.000	-0.014	600.001	0.127	5.555	1772223379.927
728	600.000	-0.002	600.002	0.131	4.129	1772223380.156
729	600.000	0.029	599.999	0.101	5.937	1772223380.408
730	600.000	0.003	600.002	0.246	4.260	1772223380.651
731	600.000	-0.019	599.999	0.062	0.071	1772223380.910
732	600.000	0.009	599.999	0.218	4.365	1772223381.173
733	600.000	0.009	600.000	0.157	5.405	1772223381.414
734	600.000	0.013	600.002	0.213	4.438	1772223381.657
735	600.000	-0.003	600.003	0.129	5.970	1772223381.920
736	600.000	-0.006	599.997	0.146	4.405	1772223382.158
737	600.000	0.009	599.999	0.159	6.052	1772223382.421
738	600.000	0.020	599.999	0.142	4.402	1772223382.670
739	600.000	0.007	600.003	0.117	0.034	1772223382.926
740	600.000	-0.005	600.002	0.160	3.772	1772223383.185
741	600.000	-0.050	600.002	0.144	0.079	1772223383.403
742	600.000	0.042	599.998	0.132	4.377	1772223383.656
743	600.000	-0.007	599.998	0.091	5.909	1772223383.912
744	600.000	-0.034	599.997	0.188	4.090	1772223384.164
745	600.000	-0.015	599.999	0.153	5.776	1772223384.419
746	600.000	0.032	600.002	0.135	3.527	1772223384.666
747	600.000	0.007	600.002	0.155	5.316	1772223384.928
748	600.000	0.004	600.001	0.145	2.955	1772223385.170
749	600.000	-0.000	600.001	0.211	5.550	1772223385.428
750	600.000	-0.004	599.999	0.182	3.380	1772223385.651
751	600.000	0.036	599.998	0.080	0.072	1772223385.863
752	600.000	0.005	599.999	0.288	4.774	1772223386.115
753	600.000	0.003	599.997	0.073	2.160	1772223386.333
754	600.000	0.025	600.000	0.395	5.188	1772223386.532
755	600.000	0.009	599.999	0.229	2.075	1772223386.802
756	600.000	-0.000	599.997	0.375	4.977	1772223387.028
757	600.000	-0.001	600.000	0.159	1.906	1772223387.313
758	600.000	-0.003	600.002	0.412	4.857	1772223387.540
759	600.000	0.050	600.000	0.152	1.441	1772223387.805
760	600.000	0.015	599.998	0.348	4.868	1772223388.033
761	600.000	-0.003	599.999	0.184	1.891	1772223388.291
762	600.000	-0.007	600.003	0.272	4.759	1772223388.580
763	600.000	0.007	599.998	0.154	1.388	1772223388.827
764	600.000	-0.018	600.002	0.250	4.572	1772223389.097
765	600.000	0.021	600.000	0.041	1.214	1772223389.325
766	600.000	-0.009	600.001	0.334	4.274	1772223389.576
767	600.000	0.021	600.000	0.216	0.902	1772223389.839
768	600.000	0.014	600.001	0.277	4.583	1772223390.087
769	600.000	-0.029	599.998	0.167	1.163	1772223390.323
770	600.000	-0.004	600.000	0.350	4.595	1772223390.569
771	600.000	0.010	600.001	0.201	1.973	1772223390.830
772	600.000	0.024	599.999	0.342	4.432	1772223391.087
773	600.000	0.042	600.000	0.183	1.077	1772223391.314
774	600.000	0.063	600.000	0.342	4.672	1772223391.575
775	600.000	0.031	600.002	0.147	1.014	1772223391.840
776	600.000	0.004	599.997	0.342	4.370	1772223392.079
777	600.000	-0.017	600.002	0.089	1.841	1772223392.334
778	600.000	-0.027	600.003	0.277	4.430	1772223392.604
779	600.000	-0.030	600.002	0.134	0.830	1772223392.808
780	600.000	0.041	600.000	0.339	4.862	1772223393.078
781	600.000	-0.031	600.000	0.193	0.988	1772223393.315
782	600.000	-0.002	600.002	0.307	4.813	1772223393.584
783	600.000	0.031	600.001	0.163	0.397	1772223393.807
784	600.000	0.039	599.998	0.309	4.369	1772223394.083
785	600.000	-0.007	600.001	0.132	0.111	1772223394.349
786	600.000	-0.012	600.001	0.267	4.374	1772223394.548
787	600.000	0.030	600.001	0.151	1.140	1772223394.757
788	600.000	-0.009	600.001	0.361	5.018	1772223395.019
789	600.000	-0.024	599.998	0.210	1.897	1772223395.259
790	600.000	0.017	599.999	0.395	4.953	1772223395.504
791	600.000	-0.025	599.999	0.158	2.024	1772223395.755
792	600.000	0.012	600.001	0.393	5.028	1772223396.018
793	600.000	-0.020	600.002	0.153	1.775	1772223396.269
794	600.000	0.012	600.002	0.335	5.110	1772223396.532
795	600.000	0.039	600.002	0.109	1.169	1772223396.777
796	600.000	0.010	599.998	0.407	4.993	1772223397.000
797	600.000	-0.036	600.002	0.167	1.694	1772223397.270
798	600.000	0.051	600.001	0.392	4.823	1772223397.504
799	600.000	0.005	599.999	0.162	2.150	1772223397.782
800	600.000	-0.015	599.997	0.301	4.935	1772223398.010
801	600.000	0.061	600.003	0.168	1.588	1772223398.271
802	600.000	-0.002	600.004	0.393	4.625	1772223398.516
803	600.000	0.005	600.001	0.238	1.335	1772223398.742
804	600.000	0.013	600.002	0.327	5.133	1772223399.009
805	600.000	-0.005	600.001	0.187	1.474	1772223399.268
806	600.000	-0.039	600.004	0.259	4.846	1772223399.533
807	600.000	-0.008	600.001	0.165	1.722	1772223399.743
808	600.000	0.043	600.000	0.324	4.915	1772223399.987
809	600.000	-0.008	599.999	0.145	1.520	1772223400.275
810	600.000	0.016	599.999	0.320	4.744	1772223400.513
811	600.000	-0.014	600.001	0.056	0.069	1772223400.786
812	600.000	0.008	600.003	0.215	4.995	1772223401.014
813	600.000	-0.002	599.999	0.086	1.019	1772223401.278
814	600.000	0.049	600.003	0.281	4.527	1772223401.525
815	600.000	0.006	600.000	0.137	1.372	1772223401.757
816	600.000	-0.005	599.997	0.338	4.670	1772223402.015
817	600.000	0.007	599.996	0.153	1.364	1772223402.242
818	600.000	0.002	600.001	0.346	4.834	1772223402.521
819	600.000	0.025	600.000	0.172	0.965	1772223402.756
820	600.000	0.007	599.999	0.285	4.554	1772223403.032
821	600.000	0.087	599.999	0.201	0.621	1772223403.242
822	600.000	-0.020	599.999	0.359	5.000	1772223403.472
823	600.000	0.012	599.998	0.192	1.543	1772223403.729
824	600.000	0.033	599.999	0.341	4.714	1772223403.980
825	600.000	0.012	599.998	0.159	1.641	1772223404.247
826	600.000	-0.044	600.001	0.283	4.856	1772223404.493
827	600.000	-0.024	599.998	0.063	1.711	1772223404.738
828	600.000	0.021	600.001	0.317	4.799	1772223404.985
829	600.000	0.039	599.998	0.108	1.581	1772223405.221
830	600.000	-0.013	600.000	0.331	4.730	1772223405.477
831	600.000	-0.016	600.001	0.137	1.487	1772223405.746
832	600.000	-0.004	599.999	0.279	4.778	1772223405.989
833	600.000	-0.013	600.001	0.099	0.765	1772223406.231
834	600.000	-0.004	600.000	0.249	4.949	1772223406.461
835	600.000	-0.019	599.996	0.094	1.452	1772223406.726
836	600.000	0.026	600.001	0.242	4.692	1772223406.970
837	600.000	-0.049	600.001	0.157	1.564	1772223407.214
838	600.000	0.055	599.997	0.364	5.054	1772223407.441
839	600.000	0.014	599.997	0.224	1.800	1772223407.691
840	600.000	0.001	600.001	0.348	5.174	1772223407.947
841	600.000	-0.001	600.001	0.244	1.440	1772223408.175
842	600.000	0.007	599.999	0.377	5.205	1772223408.452
843	600.000	0.000	600.000	0.131	1.583	1772223408.687
844	600.000	-0.004	600.001	0.403	4.890	1772223408.929
845	600.000	0.020	600.001	0.152	1.881	1772223409.192
846	600.000	0.017	600.000	0.374	4.776	1772223409.426
847	600.000	0.017	600.001	0.212	1.373	1772223409.702
848	600.000	0.043	600.003	0.364	4.639	1772223409.937
849	600.000	0.006	600.001	0.230	1.930	1772223410.176
850	600.000	-0.017	600.003	0.267	4.732	1772223410.455
851	600.000	0.014	599.998	0.171	1.039	1772223410.697
852	600.000	0.021	599.999	0.303	4.778	1772223410.954
853	600.000	0.052	600.000	0.127	1.390	1772223411.204
854	600.000	-0.014	600.000	0.353	4.700	1772223411.451
855	600.000	0.064	600.001	0.113	1.224	1772223411.691
856	600.000	0.010	600.001	0.310	4.913	1772223411.960
857	600.000	-0.040	600.002	0.116	1.044	1772223412.215
858	600.000	0.003	599.999	0.272	4.754	1772223412.458
859	600.000	-0.020	599.999	0.162	0.922	1772223412.703
860	600.000	0.023	600.000	0.293	4.980	1772223412.960
861	600.000	-0.012	600.002	0.164	0.830	1772223413.206
862	600.000	0.011	600.002	0.339	4.628	1772223413.432
863	600.000	0.019	599.998	0.072	1.881	1772223413.705
864	600.000	0.032	599.998	0.342	4.405	1772223413.960
865	600.000	0.005	599.997	0.113	1.519	1772223414.200
866	600.000	-0.026	600.003	0.261	4.642	1772223414.453
867	600.000	-0.012	599.999	0.141	1.272	1772223414.708
868	600.000	-0.015	599.997	0.305	4.767	1772223414.958
869	600.000	-0.008	599.999	0.130	0.897	1772223415.196
870	600.000	0.015	600.001	0.288	4.527	1772223415.447
871	600.000	-0.001	600.000	0.166	1.433	1772223415.699
872	600.000	-0.003	599.999	0.300	4.663	1772223415.941
873	600.000	0.001	600.003	0.043	0.973	1772223416.205
874	600.000	0.017	600.001	0.195	4.324	1772223416.431
875	600.000	0.004	599.999	0.137	0.732	1772223416.702
876	600.000	0.045	600.000	0.351	4.761	1772223416.930
877	600.000	0.029	600.002	0.089	1.533	1772223417.204
878	600.000	0.007	600.000	0.214	4.384	1772223417.465
879	600.000	-0.003	600.002	0.166	0.298	1772223417.705
880	600.000	-0.024	600.000	0.274	4.519	1772223417.942
881	600.000	-0.000	599.999	0.171	0.386	1772223418.208
882	600.000	0.022	600.001	0.231	4.312	1772223418.473
883	600.000	-0.021	600.001	0.137	5.832	1772223418.718
884	600.000	0.009	600.001	0.295	4.131	1772223418.965
885	600.000	-0.019	600.001	0.080	5.778	1772223419.219
886	600.000	0.003	599.998	0.185	3.856	1772223419.493
887	600.000	0.017	599.998	0.135	5.552	1772223419.737
888	600.000	-0.011	599.998	0.138	4.292	1772223419.962
889	600.000	0.008	600.003	0.090	6.233	1772223420.212
890	600.000	0.012	599.999	0.242	4.365	1772223420.466
891	600.000	-0.032	599.999	0.085	6.027	1772223420.723
892	600.000	0.000	600.001	0.213	4.257	1772223420.957
893	600.000	-0.030	599.998	0.062	5.752	1772223421.232
894	600.000	-0.045	600.001	0.214	4.210	1772223421.461
895	600.000	-0.003	599.998	0.094	6.229	1772223421.715
896	600.000	-0.024	600.002	0.259	4.573	1772223421.954
897	600.000	0.033	600.001	0.112	0.260	1772223422.188
898	600.000	-0.061	600.000	0.259	4.682	1772223422.466
899	600.000	0.011	600.000	0.105	0.367	1772223422.715
900	600.000	-0.002	599.997	0.238	4.457	1772223422.987
901	600.000	0.005	599.999	0.119	5.706	1772223423.215
902	600.000	-0.060	600.001	0.321	4.847	1772223423.412
903	600.000	-0.003	600.002	0.221	1.194	1772223423.698
904	600.000	-0.018	599.999	0.393	4.440	1772223423.925
905	600.000	-0.007	600.002	0.249	1.451	1772223424.165
906	600.000	0.010	600.000	0.362	4.801	1772223424.415
907	600.000	-0.048	599.999	0.129	1.148	1772223424.659
908	600.000	0.003	600.001	0.294	5.064	1772223424.935
909	600.000	-0.018	599.999	0.178	1.186	1772223425.167
910	600.000	0.017	599.997	0.317	4.744	1772223425.416
911	600.000	0.019	600.001	0.206	1.339	1772223425.666
912	600.000	-0.000	600.002	0.392	4.983	1772223425.893
913	600.000	-0.002	600.000	0.215	1.573	1772223426.165
914	600.000	-0.041	599.999	0.356	4.641	1772223426.405
915	600.000	0.012	600.000	0.165	1.370	1772223426.689
916	600.000	0.012	600.000	0.310	4.823	1772223426.904
917	600.000	-0.002	599.999	0.247	1.259	1772223427.172
918	600.000	0.040	599.998	0.301	4.731	1772223427.421
919	600.000	0.011	600.000	0.229	1.839	1772223427.673
920	600.000	0.001	600.000	0.385	4.839	1772223427.933
921	600.000	-0.036	600.001	0.140	1.324	1772223428.163
922	600.000	-0.013	599.997	0.366	4.992	1772223428.421
923	600.000	0.025	599.998	0.226	1.798	1772223428.649
924	600.000	-0.021	599.998	0.341	4.815	1772223428.923
925	600.000	0.015	599.999	0.162	1.825	1772223429.178
926	600.000	-0.011	600.001	0.276	4.770	1772223429.432
927	600.000	0.050	599.998	0.125	1.170	1772223429.663
928	600.000	-0.016	600.002	0.312	4.855	1772223429.929
929	600.000	0.037	600.000	0.115	1.519	1772223430.173
930	600.000	0.047	599.998	0.296	4.844	1772223430.408
931	600.000	-0.004	600.002	0.198	1.314	1772223430.674
932	600.000	0.022	600.000	0.361	4.922	1772223430.920
933	600.000	-0.029	600.000	0.197	1.616	1772223431.175
934	600.000	-0.011	600.001	0.392	4.853	1772223431.421
935	600.000	0.004	600.000	0.204	1.821	1772223431.663
936	600.000	0.020	600.000	0.264	4.868	1772223431.942
937	600.000	0.018	600.003	0.081	1.753	1772223432.202
938	600.000	0.019	600.000	0.229	4.470	1772223432.465
939	600.000	-0.003	600.004	0.143	1.259	1772223432.661
940	600.000	-0.020	600.003	0.335	4.896	1772223432.941
941	600.000	-0.015	600.002	0.102	0.684	1772223433.191
942	600.000	-0.044	600.001	0.255	4.294	1772223433.444
943	600.000	-0.015	600.000	0.103	0.622	1772223433.693
944	600.000	0.026	599.999	0.352	4.808	1772223433.940
945	600.000	-0.005	600.000	0.133	0.355	1772223434.196
946	600.000	0.020	599.999	0.179	4.747	1772223434.427
947	600.000	0.015	600.001	0.165	1.366	1772223434.683
948	600.000	-0.006	599.999	0.281	4.832	1772223434.920
949	600.000	-0.000	600.000	0.127	1.529	1772223435.182
950	600.000	-0.053	600.000	0.279	4.555	1772223435.435
951	600.000	0.040	599.998	0.099	0.614	1772223435.672
952	600.000	0.058	599.998	0.297	4.331	1772223435.934
953	600.000	0.014	599.997	0.169	0.688	1772223436.213
954	600.000	-0.047	600.000	0.268	4.209	1772223436.447
955	600.000	-0.017	599.998	0.039	0.356	1772223436.675
956	600.000	0.010	600.000	0.352	4.624	1772223436.932
957	600.000	-0.022	600.000	0.102	6.097	1772223437.182
958	600.000	-0.021	599.996	0.200	4.526	1772223437.440
959	600.000	-0.015	600.001	0.075	0.959	1772223437.702
960	600.000	0.010	600.004	0.219	4.556	1772223437.944
961	600.000	0.013	600.001	0.058	0.292	1772223438.183
962	600.000	-0.021	600.002	0.190	4.477	1772223438.420
963	600.000	-0.031	600.001	0.069	6.255	1772223438.697
964	600.000	-0.013	600.001	0.280	4.466	1772223438.919
965	600.000	-0.005	599.998	0.067	0.615	1772223439.185
966	600.000	0.021	599.999	0.232	4.118	1772223439.436
967	600.000	-0.023	599.995	0.071	0.454	1772223439.704
968	600.000	0.006	600.001	0.240	4.310	1772223439.932
969	600.000	-0.026	600.000	0.096	0.139	1772223440.158
970	600.000	0.001	600.003	0.257	4.546	1772223440.437
971	600.000	0.023	599.999	0.056	0.722	1772223440.669
972	600.000	-0.014	600.003	0.285	4.531	1772223440.930
973	600.000	0.005	599.999	0.096	0.286	1772223441.165
974	600.000	0.061	600.000	0.226	4.567	1772223441.447
975	600.000	-0.023	599.999	0.179	6.086	1772223441.699
976	600.000	-0.005	600.003	0.195	3.597	1772223441.952
977	600.000	0.014	600.000	0.136	6.192	1772223442.182
978	600.000	0.069	600.001	0.178	4.312	1772223442.433
979	600.000	-0.013	600.000	0.114	6.127	1772223442.699
980	600.000	-0.007	599.998	0.154	4.261	1772223442.929
981	600.000	-0.015	599.998	0.059	6.169	1772223443.195
982	600.000	0.005	599.997	0.194	3.316	1772223443.446
983	600.000	-0.015	600.002	0.104	0.048	1772223443.672
984	600.000	0.041	599.998	0.214	4.364	1772223443.941
985	600.000	0.028	599.999	0.127	5.892	1772223444.174
986	600.000	0.026	600.000	0.267	4.271	1772223444.444
987	600.000	-0.006	599.998	0.092	6.047	1772223444.675
988	600.000	0.002	600.001	0.181	4.516	1772223444.954
989	600.000	0.014	600.001	0.161	5.312	1772223445.190
990	600.000	-0.031	600.000	0.135	3.750	1772223445.433
991	600.000	-0.013	600.001	0.056	0.522	1772223445.674
992	600.000	-0.002	599.999	0.102	4.293	1772223445.917
993	600.000	-0.005	600.001	0.152	6.158	1772223446.201
994	600.000	0.003	600.002	0.124	4.043	1772223446.414
995	600.000	-0.039	599.999	0.103	5.988	1772223446.707
996	600.000	-0.035	600.000	0.107	3.693	1772223446.937
997	600.000	0.056	600.002	0.150	5.255	1772223447.184
998	600.000	0.005	599.996	0.188	4.037	1772223447.418
999	600.000	0.007	600.000	0.104	5.963	1772223447.634
1000	600.000	-0.018	600.001	0.259	4.986	1772223447.887
1001	600.000	0.012	599.996	0.053	5.901	1772223448.147
1002	600.000	0.046	600.003	0.253	4.337	1772223448.392
1003	600.000	-0.001	600.001	0.107	0.978	1772223448.611
1004	600.000	0.058	600.001	0.155	4.755	1772223448.867
1005	600.000	0.030	599.999	0.062	5.588	1772223449.150
1006	600.000	-0.004	599.999	0.203	4.121	1772223449.377
1007	600.000	0.012	600.001	0.053	5.913	1772223449.647
1008	600.000	-0.006	600.001	0.159	4.578	1772223449.875
1009	600.000	-0.015	600.001	0.048	0.579	1772223450.152
1010	600.000	0.040	599.998	0.235	4.859	1772223450.364
1011	600.000	-0.003	599.998	0.095	0.521	1772223450.624
1012	600.000	0.008	600.000	0.199	4.646	1772223450.871
1013	600.000	0.015	599.999	0.078	1.386	1772223451.129
1014	600.000	0.011	599.999	0.245	4.480	1772223451.374
1015	600.000	0.002	600.005	0.085	1.474	1772223451.628
1016	600.000	0.004	600.000	0.204	4.412	1772223451.868
1017	600.000	-0.016	600.001	0.099	0.504	1772223452.122
1018	600.000	-0.001	600.002	0.342	4.473	1772223452.361
1019	600.000	-0.005	600.000	0.131	1.052	1772223452.624
1020	600.000	0.030	600.001	0.256	4.910	1772223452.852
1021	600.000	-0.024	600.001	0.063	0.414	1772223453.122
1022	600.000	-0.027	600.000	0.169	4.484	1772223453.378
1023	600.000	0.034	599.996	0.005	3.166	1772223453.639
1024	600.000	0.001	600.002	0.190	4.435	1772223453.889
1025	600.000	-0.002	599.998	0.066	0.614	1772223454.138
1026	600.000	-0.039	600.003	0.171	4.490	1772223454.384
1027	600.000	0.026	600.001	0.098	0.193	1772223454.602
1028	600.000	0.003	600.001	0.197	4.358	1772223454.876
1029	600.000	-0.030	600.001	0.048	0.286	1772223455.115
1030	600.000	0.028	599.998	0.172	4.605	1772223455.392
1031	600.000	-0.006	599.999	0.074	1.387	1772223455.620
1032	600.000	-0.011	600.001	0.276	4.691	1772223455.842
1033	600.000	-0.018	600.000	0.132	0.851	1772223456.128
1034	600.000	-0.023	600.000	0.263	4.358	1772223456.371
1035	600.000	0.052	600.001	0.086	0.349	1772223456.637
1036	600.000	0.030	600.003	0.192	4.252	1772223456.860
1037	600.000	-0.010	599.998	0.069	6.238	1772223457.139
1038	600.000	0.014	600.000	0.095	4.771	1772223457.392
1039	600.000	0.009	600.000	0.078	5.630	1772223457.642
1040	600.000	-0.009	599.999	0.142	4.157	1772223457.873
1041	600.000	0.012	600.002	0.063	0.822	1772223458.102
1042	600.000	0.020	599.998	0.291	4.754	1772223458.362
1043	600.000	-0.016	599.999	0.010	2.318	1772223458.621
1044	600.000	-0.045	599.998	0.259	4.492	1772223458.873
1045	600.000	-0.009	599.999	0.039	0.968	1772223459.111
1046	600.000	-0.081	599.998	0.197	4.575	1772223459.392
1047	600.000	-0.004	600.001	0.055	5.591	1772223459.613
1048	600.000	-0.014	599.999	0.260	4.666	1772223459.861
1049	600.000	0.002	599.997	0.016	3.703	1772223460.148
1050	600.000	-0.001	599.999	0.104	4.219	1772223460.373
1051	600.000	-0.014	600.001	0.121	6.012	1772223460.668
1052	600.000	0.007	600.000	0.158	3.582	1772223460.902
1053	600.000	-0.027	599.998	0.130	5.954	1772223461.137
1054	600.000	-0.009	599.998	0.110	4.397	1772223461.389
1055	600.000	0.045	600.005	0.059	5.981	1772223461.610
1056	600.000	0.002	599.997	0.162	4.378	1772223461.893
1057	600.000	0.001	599.998	0.106	6.238	1772223462.116
1058	600.000	0.005	600.002	0.310	4.859	1772223462.395
1059	600.000	0.014	599.999	0.088	5.575	1772223462.649
1060	600.000	0.003	600.002	0.150	4.297	1772223462.897
1061	600.000	-0.012	599.999	0.148	0.322	1772223463.134
1062	600.000	-0.016	599.996	0.159	4.733	1772223463.404
1063	600.000	-0.007	600.001	0.045	1.492	1772223463.640
1064	600.000	0.001	600.000	0.240	4.706	1772223463.874
1065	600.000	0.058	600.000	0.075	0.221	1772223464.147
1066	600.000	-0.043	600.001	0.272	4.744	1772223464.377
1067	600.000	0.041	600.000	0.164	0.710	1772223464.637
1068	600.000	-0.003	600.001	0.186	4.687	1772223464.901
1069	600.000	-0.011	600.006	0.082	1.773	1772223465.152
1070	600.000	0.002	600.000	0.213	4.514	1772223465.379
1071	600.000	0.012	600.000	0.058	0.411	1772223465.628
1072	600.000	-0.008	599.999	0.187	5.047	1772223465.910
1073	600.000	-0.004	600.000	0.152	5.382	1772223466.142
1074	600.000	-0.016	599.998	0.259	4.888	1772223466.389
1075	600.000	-0.011	600.000	0.145	0.649	1772223466.639
1076	600.000	-0.031	599.999	0.233	4.670	1772223466.879
1077	600.000	0.031	599.997	0.087	0.576	1772223467.128
1078	600.000	-0.022	600.002	0.181	4.723	1772223467.388
1079	600.000	0.019	600.002	0.168	6.255	1772223467.660
1080	600.000	-0.004	600.000	0.081	4.283	1772223467.881
1081	600.000	-0.025	600.001	0.100	1.680	1772223468.153
1082	600.000	0.011	600.001	0.141	4.237	1772223468.408
1083	600.000	0.021	599.999	0.092	6.220	1772223468.644
1084	600.000	-0.002	599.997	0.176	4.500	1772223468.890
1085	600.000	-0.004	600.002	0.152	0.332	1772223469.158
1086	600.000	0.022	600.001	0.277	4.843	1772223469.413
1087	600.000	0.007	599.997	0.122	5.749	1772223469.634
1088	600.000	0.015	599.999	0.185	4.788	1772223469.887
1089	600.000	-0.029	600.001	0.095	0.405	1772223470.141
1090	600.000	0.021	600.004	0.209	4.740	1772223470.391
1091	600.000	-0.043	600.003	0.217	6.037	1772223470.648
1092	600.000	-0.012	600.000	0.239	4.666	1772223470.887
1093	600.000	-0.019	599.997	0.098	0.152	1772223471.160
1094	600.000	0.009	599.999	0.090	4.132	1772223471.387
1095	600.000	-0.001	599.997	0.167	0.697	1772223471.645
1096	600.000	-0.020	600.002	0.152	4.377	1772223471.898
1097	600.000	-0.008	600.000	0.124	0.472	1772223472.129
1098	600.000	0.004	600.001	0.112	4.850	1772223472.388
1099	600.000	-0.046	600.002	0.141	0.864	1772223472.619
1100	600.000	0.053	600.001	0.229	4.320	1772223472.902
1101	600.000	-0.017	600.002	0.133	6.082	1772223473.134
1102	600.000	0.030	599.999	0.163	4.716	1772223473.398
1103	600.000	-0.013	600.003	0.082	0.374	1772223473.633
1104	600.000	-0.006	599.998	0.240	4.291	1772223473.874
1105	600.000	-0.004	599.998	0.138	0.861	1772223474.136
1106	600.000	-0.030	600.002	0.083	4.370	1772223474.396
1107	600.000	0.017	600.000	0.195	0.125	1772223474.658
1108	600.000	-0.041	600.000	0.132	5.024	1772223474.877
1109	600.000	-0.005	599.998	0.125	0.323	1772223475.148
1110	600.000	-0.026	599.999	0.151	4.020	1772223475.376
1111	600.000	0.026	599.999	0.146	0.540	1772223475.635
1112	600.000	-0.007	600.005	0.136	4.624	1772223475.897
1113	600.000	0.038	599.998	0.075	6.094	1772223476.128
1114	600.000	0.050	600.002	0.213	4.413	1772223476.403
1115	600.000	0.010	599.998	0.144	6.163	1772223476.640
1116	600.000	-0.020	600.003	0.131	4.083	1772223476.896
1117	600.000	0.016	599.996	0.013	6.055	1772223477.121
1118	600.000	-0.018	599.999	0.171	4.113	1772223477.387
1119	600.000	-0.038	600.000	0.122	6.018	1772223477.633
1120	600.000	0.032	600.003	0.123	4.242	1772223477.908
1121	600.000	-0.024	600.001	0.090	0.053	1772223478.167
1122	600.000	-0.025	600.001	0.208	3.797	1772223478.371
1123	600.000	0.003	600.003	0.030	4.997	1772223478.648
1124	600.000	-0.012	600.000	0.197	4.408	1772223478.877
1125	600.000	0.045	599.999	0.143	6.100	1772223479.160
1126	600.000	0.007	600.003	0.036	4.385	1772223479.389
1127	600.000	-0.007	600.001	0.117	6.161	1772223479.628
1128	600.000	-0.011	600.003	0.122	3.500	1772223479.903
1129	600.000	0.019	600.000	0.137	5.932	1772223480.112
1130	600.000	-0.006	600.001	0.096	4.363	1772223480.380
1131	600.000	-0.002	599.997	0.076	5.917	1772223480.630
1132	600.000	-0.010	599.999	0.030	3.788	1772223480.877
1133	600.000	0.002	600.000	0.085	0.196	1772223481.096
1134	600.000	-0.049	599.997	0.248	4.564	1772223481.323
1135	600.000	-0.046	600.000	0.076	0.398	1772223481.600
1136	600.000	0.008	600.003	0.148	4.577	1772223481.835
1137	600.000	-0.019	600.003	0.038	5.767	1772223482.070
1138	600.000	0.011	599.998	0.244	5.009	1772223482.323
1139	600.000	0.025	600.000	0.046	0.894	1772223482.580
1140	600.000	0.021	599.998	0.143	4.453	1772223482.839
1141	600.000	0.007	600.001	0.051	1.187	1772223483.072
1142	600.000	-0.020	600.000	0.269	4.605	1772223483.328
1143	600.000	-0.048	600.000	0.109	0.348	1772223483.575
1144	600.000	0.029	599.997	0.251	4.741	1772223483.823
1145	600.000	-0.054	600.001	0.193	1.209	1772223484.081
1146	600.000	-0.007	600.001	0.200	4.253	1772223484.310
1147	600.000	0.035	599.997	0.057	0.054	1772223484.579
1148	600.000	-0.009	599.998	0.233	4.529	1772223484.804
1149	600.000	0.016	600.000	0.189	1.010	1772223485.082
1150	600.000	-0.044	599.996	0.188	4.396	1772223485.338
1151	600.000	-0.005	599.998	0.075	0.138	1772223485.593
1152	600.000	0.027	599.998	0.179	4.174	1772223485.852
1153	600.000	-0.003	600.001	0.099	0.110	1772223486.091
1154	600.000	0.012	599.999	0.117	4.460	1772223486.360
1155	600.000	-0.025	599.998	0.095	5.859	1772223486.599
1156	600.000	0.012	600.002	0.213	4.632	1772223486.856
1157	600.000	0.017	599.999	0.152	0.187	1772223487.103
1158	600.000	-0.005	600.002	0.243	4.531	1772223487.352
1159	600.000	-0.003	599.998	0.054	0.223	1772223487.590
1160	600.000	-0.002	599.997	0.113	5.374	1772223487.816
1161	600.000	0.013	600.003	0.142	0.457	1772223488.081
1162	600.000	-0.014	599.999	0.172	4.280	1772223488.358
1163	600.000	0.038	599.999	0.084	5.991	1772223488.613
1164	600.000	-0.026	600.000	0.135	4.517	1772223488.837
1165	600.000	0.014	599.998	0.127	0.771	1772223489.092
1166	600.000	0.023	600.002	0.104	4.188	1772223489.344
1167	600.000	0.029	599.999	0.083	0.924	1772223489.588
1168	600.000	-0.004	600.002	0.176	4.869	1772223489.841
1169	600.000	0.027	600.000	0.160	0.387	1772223490.078
1170	600.000	-0.033	600.000	0.136	4.466	1772223490.365
1171	600.000	0.010	599.999	0.139	6.118	1772223490.605
1172	600.000	0.017	599.999	0.152	4.343	1772223490.831
1173	600.000	0.001	600.000	0.077	6.104	1772223491.110
1174	600.000	0.014	599.998	0.089	3.881	1772223491.342
1175	600.000	-0.017	599.999	0.186	0.253	1772223491.616
1176	600.000	-0.022	600.000	0.040	1.103	1772223491.851
1177	600.000	-0.005	599.999	0.132	5.663	1772223492.131
1178	600.000	0.002	600.000	0.123	2.661	1772223492.355
1179	600.000	-0.043	600.002	0.155	0.279	1772223492.613
1180	600.000	-0.009	600.000	0.091	2.510	1772223492.856
1181	600.000	-0.015	600.004	0.137	5.601	1772223493.128
1182	600.000	-0.033	599.998	0.108	1.428	1772223493.355
1183	600.000	-0.007	599.996	0.166	5.486	1772223493.597
1184	600.000	0.004	599.998	0.065	4.506	1772223493.885
1185	600.000	-0.015	600.002	0.278	5.657	1772223494.089
1186	600.000	0.024	599.999	0.088	4.390	1772223494.353
1187	600.000	0.008	599.997	0.148	6.030	1772223494.602
1188	600.000	0.007	600.001	0.148	4.610	1772223494.851
1189	600.000	0.024	599.998	0.142	5.495	1772223495.090
1190	600.000	-0.013	599.999	0.070	3.805	1772223495.344
1191	600.000	0.027	600.001	0.155	5.522	1772223495.629
1192	600.000	0.044	600.000	0.006	4.827	1772223495.853
1193	600.000	0.038	600.002	0.157	6.242	1772223496.103
1194	600.000	-0.015	600.000	0.087	3.926	1772223496.346
1195	600.000	-0.018	600.003	0.139	0.093	1772223496.607
1196	600.000	0.018	599.998	0.077	3.242	1772223496.872
1197	600.000	0.010	600.000	0.136	5.540	1772223497.107
1198	600.000	0.019	599.997	0.041	4.497	1772223497.379
1199	600.000	0.030	599.999	0.155	5.759	1772223497.594
1200	600.000	-0.032	599.999	0.085	3.337	1772223497.865
1201	600.000	0.003	600.002	0.218	5.573	1772223498.133
1202	600.000	0.030	600.000	0.066	2.641	1772223498.352
1203	600.000	-0.027	600.001	0.168	5.857	1772223498.598
1204	600.000	-0.058	600.001	0.110	3.516	1772223498.841
1205	600.000	0.010	599.999	0.155	6.076	1772223499.110
1206	600.000	0.014	599.999	0.172	3.862	1772223499.340
1207	600.000	-0.011	600.002	0.137	0.156	1772223499.606
1208	600.000	0.019	599.998	0.004	5.424	1772223499.859
1209	600.000	0.022	600.002	0.175	5.753	1772223500.111
1210	600.000	-0.004	600.001	0.093	3.426	1772223500.348
1211	600.000	-0.006	599.998	0.176	5.935	1772223500.609
1212	600.000	-0.008	599.998	0.115	4.072	1772223500.857
1213	600.000	0.012	600.000	0.150	5.600	1772223501.112
1214	600.000	0.029	599.998	0.032	2.438	1772223501.359
1215	600.000	0.028	600.000	0.202	5.417	1772223501.612
1216	600.000	-0.019	600.000	0.060	2.898	1772223501.856
1217	600.000	-0.035	599.998	0.256	5.581	1772223502.107
1218	600.000	0.015	600.001	0.090	3.158	1772223502.380
1219	600.000	-0.009	600.001	0.091	5.283	1772223502.599
1220	600.000	0.035	600.001	0.100	2.985	1772223502.849
1221	600.000	0.036	599.997	0.159	5.730	1772223503.121
1222	600.000	-0.012	600.001	0.094	3.089	1772223503.368
1223	600.000	0.003	599.998	0.149	5.977	1772223503.624
1224	600.000	-0.040	600.000	0.086	3.090	1772223503.857
1225	600.000	-0.022	599.999	0.104	5.486	1772223504.086
1226	600.000	-0.006	599.999	0.051	3.878	1772223504.380
1227	600.000	-0.002	600.002	0.146	5.575	1772223504.620
1228	600.000	-0.001	600.000	0.114	3.866	1772223504.856
1229	600.000	0.043	599.998	0.152	5.542	1772223505.091
1230	600.000	-0.044	599.997	0.045	4.593	1772223505.361
1231	600.000	0.004	599.999	0.151	5.889	1772223505.619
1232	600.000	0.018	599.997	0.110	4.016	1772223505.856
1233	600.000	-0.002	600.000	0.131	5.808	1772223506.112
1234	600.000	-0.041	600.001	0.127	3.357	1772223506.346
1235	600.000	0.020	599.999	0.164	5.712	1772223506.606
1236	600.000	-0.011	599.997	0.083	2.728	1772223506.863
1237	600.000	0.018	599.998	0.131	5.472	1772223507.110
1238	600.000	0.016	599.997	0.100	3.557	1772223507.362
1239	600.000	-0.013	600.000	0.044	4.686	1772223507.610
1240	600.000	0.017	600.001	0.036	4.343	1772223507.871
1241	600.000	-0.026	599.996	0.162	5.723	1772223508.094
1242	600.000	-0.035	599.999	0.057	3.967	1772223508.357
1243	600.000	0.004	599.997	0.023	0.882	1772223508.608
1244	600.000	0.014	600.001	0.113	3.476	1772223508.882
1245	600.000	0.006	599.997	0.187	5.825	1772223509.113
1246	600.000	-0.008	600.003	0.057	3.420	1772223509.358
1247	600.000	0.013	599.998	0.067	5.705	1772223509.612
1248	600.000	-0.036	600.002	0.123	4.148	1772223509.847
1249	600.000	-0.001	600.001	0.066	6.042	1772223510.112
1250	600.000	-0.003	600.000	0.052	2.313	1772223510.350
1251	600.000	0.008	600.000	0.202	6.173	1772223510.616
1252	600.000	0.024	600.000	0.052	2.886	1772223510.858
1253	600.000	-0.009	599.998	0.121	0.056	1772223511.098
1254	600.000	-0.031	600.001	0.042	3.638	1772223511.366
1255	600.000	-0.072	600.002	0.082	0.055	1772223511.584
1256	600.000	0.008	599.997	0.131	4.504	1772223511.861
1257	600.000	-0.039	599.999	0.207	5.932	1772223512.099
1258	600.000	0.019	599.999	0.091	3.487	1772223512.354
1259	600.000	-0.022	599.995	0.121	5.888	1772223512.611
1260	600.000	-0.002	600.003	0.072	4.291	1772223512.862
1261	600.000	0.007	600.004	0.084	5.788	1772223513.113
1262	600.000	0.020	600.000	0.106	3.661	1772223513.336
1263	600.000	-0.002	599.998	0.094	5.256	1772223513.601
1264	600.000	-0.011	600.000	0.020	2.131	1772223513.854
1265	600.000	0.001	600.003	0.191	5.755	1772223514.099
1266	600.000	-0.015	600.003	0.071	3.196	1772223514.355
1267	600.000	0.015	600.003	0.123	5.328	1772223514.614
1268	600.000	0.000	600.001	0.008	4.571	1772223514.869
1269	600.000	0.021	599.999	0.190	5.233	1772223515.100
1270	600.000	0.020	599.998	0.078	4.710	1772223515.361
1271	600.000	0.041	599.998	0.120	5.394	1772223515.596
1272	600.000	-0.013	599.999	0.110	4.105	1772223515.866
1273	600.000	0.029	600.001	0.141	5.713	1772223516.097
1274	600.000	0.008	599.996	0.127	4.251	1772223516.364
1275	600.000	0.003	600.003	0.124	5.524	1772223516.617
1276	600.000	-0.015	600.000	0.064	2.889	1772223516.841
1277	600.000	0.054	599.998	0.147	5.606	1772223517.107
1278	600.000	-0.029	600.001	0.074	4.408	1772223517.341
1279	600.000	-0.029	600.002	0.088	6.149	1772223517.614
1280	600.000	-0.057	600.000	0.112	3.184	1772223517.856
1281	600.000	-0.021	600.001	0.190	5.657	1772223518.124
1282	600.000	-0.013	599.999	0.134	1.393	1772223518.359
1283	600.000	-0.017	599.998	0.106	5.968	1772223518.593
1284	600.000	0.028	599.997	0.168	3.906	1772223518.865
1285	600.000	-0.013	600.003	0.119	5.700	1772223519.088
1286	600.000	0.000	599.997	0.111	3.848	1772223519.363
1287	600.000	-0.035	600.002	0.164	5.615	1772223519.621
1288	600.000	-0.031	599.999	0.080	1.583	1772223519.861
1289	600.000	0.033	600.001	0.197	5.751	1772223520.111
1290	600.000	-0.025	600.001	0.045	1.709	1772223520.341
1291	600.000	0.033	600.001	0.247	5.739	1772223520.619
1292	600.000	0.042	599.999	0.080	2.743	1772223520.856
1293	600.000	0.025	599.999	0.247	5.705	1772223521.137
1294	600.000	0.007	599.999	0.087	2.483	1772223521.369
1295	600.000	-0.023	599.997	0.222	5.354	1772223521.622
1296	600.000	-0.007	600.001	0.085	2.247	1772223521.876
1297	600.000	0.016	600.003	0.176	5.374	1772223522.122
1298	600.000	0.036	600.002	0.123	2.273	1772223522.352
1299	600.000	-0.037	599.998	0.187	5.681	1772223522.607
1300	600.000	-0.005	600.001	0.102	2.300	1772223522.874
1301	600.000	-0.005	600.004	0.264	5.253	1772223523.095
1302	600.000	-0.019	600.001	0.071	2.184	1772223523.362
1303	600.000	-0.008	599.998	0.303	5.358	1772223523.620
1304	600.000	0.025	599.997	0.146	1.982	1772223523.849
1305	600.000	-0.031	600.001	0.322	5.268	1772223524.104
1306	600.000	-0.011	599.998	0.168	1.923	1772223524.360
1307	600.000	-0.016	600.000	0.374	5.441	1772223524.628
1308	600.000	0.016	600.002	0.188	1.798	1772223524.863
1309	600.000	0.009	599.998	0.325	5.662	1772223525.121
1310	600.000	0.017	599.997	0.165	2.057	1772223525.378
1311	600.000	0.029	600.001	0.342	5.402	1772223525.577
1312	600.000	-0.010	599.998	0.118	1.946	1772223525.860
1313	600.000	0.003	600.000	0.302	5.386	1772223526.096
1314	600.000	-0.015	599.999	0.156	2.089	1772223526.353
1315	600.000	-0.003	599.999	0.289	5.450	1772223526.609
1316	600.000	0.028	600.000	0.110	1.474	1772223526.860
1317	600.000	0.003	599.996	0.316	5.143	1772223527.114
1318	600.000	-0.020	600.000	0.128	1.876	1772223527.339
1319	600.000	-0.018	599.999	0.260	4.958	1772223527.608
1320	600.000	-0.021	600.001	0.143	1.914	1772223527.845
1321	600.000	-0.014	600.001	0.256	5.787	1772223528.104
1322	600.000	0.003	600.000	0.178	1.929	1772223528.325
1323	600.000	0.021	600.000	0.174	5.537	1772223528.538
1324	600.000	0.020	599.999	0.048	2.918	1772223528.822
1325	600.000	0.016	599.999	0.329	5.636	1772223529.072
1326	600.000	-0.001	599.998	0.142	1.989	1772223529.332
1327	600.000	-0.014	600.001	0.327	5.218	1772223529.579
1328	600.000	0.001	600.000	0.066	2.254	1772223529.850
1329	600.000	-0.010	600.004	0.329	5.393	1772223530.094
1330	600.000	0.001	599.998	0.137	1.977	1772223530.343
1331	600.000	0.013	599.998	0.324	5.364	1772223530.586
1332	600.000	-0.018	599.996	0.135	2.007	1772223530.842
1333	600.000	0.003	600.005	0.303	5.474	1772223531.076
1334	600.000	-0.014	600.002	0.156	2.972	1772223531.351
1335	600.000	0.006	600.000	0.234	5.171	1772223531.572
1336	600.000	-0.027	599.998	0.178	2.159	1772223531.818
1337	600.000	0.002	599.999	0.316	5.259	1772223532.054
1338	600.000	0.017	599.997	0.087	2.590	1772223532.343
1339	600.000	-0.019	600.000	0.364	5.312	1772223532.571
1340	600.000	-0.028	600.001	0.157	1.939	1772223532.844
1341	600.000	-0.014	599.997	0.325	5.210	1772223533.074
1342	600.000	-0.040	600.000	0.123	1.941	1772223533.316
1343	600.000	0.011	600.000	0.207	5.568	1772223533.565
1344	600.000	-0.030	599.999	0.138	1.560	1772223533.835
1345	600.000	-0.002	599.998	0.368	5.148	1772223534.101
1346	600.000	-0.038	599.999	0.149	2.383	1772223534.333
1347	600.000	0.048	599.998	0.399	5.224	1772223534.566
1348	600.000	-0.042	600.004	0.120	2.194	1772223534.820
1349	600.000	-0.024	599.994	0.361	5.154	1772223535.088
1350	600.000	0.003	600.000	0.229	1.994	1772223535.326
1351	600.000	-0.001	599.997	0.351	5.181	1772223535.572
1352	600.000	0.016	600.000	0.214	2.085	1772223535.843
1353	600.000	-0.004	600.004	0.324	5.301	1772223536.075
1354	600.000	0.026	599.999	0.169	1.859	1772223536.330
1355	600.000	0.032	600.000	0.321	5.313	1772223536.569
1356	600.000	-0.026	599.998	0.119	2.106	1772223536.836
1357	600.000	-0.028	599.999	0.339	5.262	1772223537.072
1358	600.000	0.019	599.999	0.082	2.496	1772223537.343
1359	600.000	0.002	600.003	0.355	5.415	1772223537.590
1360	600.000	-0.003	599.999	0.207	1.688	1772223537.812
1361	600.000	-0.014	600.001	0.352	5.420	1772223538.058
1362	600.000	-0.017	599.999	0.154	1.840	1772223538.318
1363	600.000	-0.003	600.000	0.305	5.271	1772223538.596
1364	600.000	-0.048	599.998	0.136	2.132	1772223538.822
1365	600.000	-0.027	600.001	0.257	5.728	1772223539.022
1366	600.000	0.017	600.000	0.076	2.303	1772223539.314
1367	600.000	-0.027	599.998	0.350	5.419	1772223539.554
1368	600.000	0.005	600.003	0.184	2.361	1772223539.786
1369	600.000	-0.003	599.998	0.352	5.433	1772223540.043
1370	600.000	0.012	599.997	0.154	2.997	1772223540.278
1371	600.000	-0.002	600.003	0.249	5.590	1772223540.550
1372	600.000	-0.033	600.000	0.174	2.281	1772223540.787
1373	600.000	0.018	600.005	0.286	5.328	1772223541.054
1374	600.000	-0.000	600.001	0.127	1.291	1772223541.284
1375	600.000	-0.002	600.000	0.293	5.539	1772223541.546
1376	600.000	0.038	600.001	0.125	2.056	1772223541.799
1377	600.000	0.028	600.001	0.319	5.654	1772223542.047
1378	600.000	-0.029	600.003	0.179	2.084	1772223542.302
1379	600.000	0.013	599.997	0.271	5.544	1772223542.545
1380	600.000	0.022	599.999	0.144	1.764	1772223542.811
1381	600.000	-0.035	599.999	0.370	5.409	1772223543.035
1382	600.000	0.038	600.001	0.162	2.029	1772223543.304
1383	600.000	-0.001	599.999	0.304	5.364	1772223543.554
1384	600.000	0.010	599.999	0.148	1.798	1772223543.805
1385	600.000	0.014	600.000	0.297	5.573	1772223544.032
1386	600.000	0.020	600.000	0.047	2.227	1772223544.284
1387	600.000	0.020	599.998	0.291	5.172	1772223544.552
1388	600.000	-0.017	600.003	0.127	2.715	1772223544.811
1389	600.000	0.032	599.999	0.335	5.000	1772223545.113
1390	600.000	-0.020	600.002	0.176	2.022	1772223545.353
1391	600.000	-0.010	600.002	0.349	4.916	1772223545.603
1392	600.000	-0.026	600.001	0.129	2.097	1772223545.838
1393	600.000	0.000	600.000	0.282	5.325	1772223546.026
1394	600.000	-0.016	600.000	0.072	1.323	1772223546.319
1395	600.000	-0.025	600.001	0.312	4.994	1772223546.552
1396	600.000	-0.010	600.001	0.131	2.861	1772223546.841
1397	600.000	-0.023	599.999	0.311	5.378	1772223547.064
1398	600.000	-0.029	600.000	0.157	1.907	1772223547.303
1399	600.000	-0.004	600.000	0.209	5.083	1772223547.556
1400	600.000	0.046	599.999	0.084	2.043	1772223547.803
1401	600.000	-0.009	600.001	0.311	5.547	1772223548.051
1402	600.000	0.039	600.001	0.106	1.893	1772223548.293
1403	600.000	-0.030	600.003	0.248	5.305	1772223548.574
1404	600.000	-0.011	600.001	0.099	1.995	1772223548.783
1405	600.000	-0.019	600.000	0.252	5.481	1772223549.060
1406	600.000	-0.008	599.999	0.094	2.010	1772223549.289
1407	600.000	-0.010	600.002	0.190	5.516	1772223549.513
1408	600.000	0.031	600.000	0.161	3.354	1772223549.765
1409	600.000	-0.044	600.003	0.241	6.161	1772223549.979
1410	600.000	-0.001	599.998	0.113	4.345	1772223550.202
1411	600.000	0.010	600.000	0.142	1.296	1772223550.395
1412	600.000	-0.022	600.000	0.309	5.101	1772223550.669
1413	600.000	0.000	600.002	0.183	1.609	1772223550.896
1414	600.000	0.080	599.999	0.288	5.108	1772223551.156
1415	600.000	-0.017	599.998	0.189	1.667	1772223551.415
1416	600.000	0.005	600.002	0.288	5.250	1772223551.684
1417	600.000	-0.015	599.999	0.105	1.228	1772223551.919
1418	600.000	0.018	599.999	0.264	4.873	1772223552.162
1419	600.000	0.017	600.002	0.211	1.499	1772223552.430
1420	600.000	0.009	600.003	0.213	5.032	1772223552.677
1421	600.000	0.026	600.000	0.091	1.124	1772223552.947
1422	600.000	-0.019	600.000	0.236	5.233	1772223553.162
1423	600.000	0.015	600.003	0.068	1.140	1772223553.427
1424	600.000	0.008	599.999	0.247	4.590	1772223553.687
1425	600.000	-0.002	600.000	0.095	1.646	1772223553.924
1426	600.000	0.012	600.001	0.282	4.779	1772223554.207
1427	600.000	0.019	600.000	0.128	0.609	1772223554.433
1428	600.000	0.046	600.004	0.241	4.970	1772223554.678
1429	600.000	0.015	600.000	0.177	1.233	1772223554.911
1430	600.000	0.039	600.000	0.292	5.022	1772223555.179
1431	600.000	-0.008	599.996	0.097	1.551	1772223555.443
1432	600.000	-0.009	600.002	0.208	4.513	1772223555.663
1433	600.000	0.005	600.000	0.121	1.349	1772223555.923
1434	600.000	-0.008	600.004	0.271	4.624	1772223556.181
1435	600.000	-0.009	599.997	0.170	0.725	1772223556.444
1436	600.000	0.003	600.000	0.210	4.751	1772223556.675
1437	600.000	-0.004	599.997	0.064	1.127	1772223556.948
1438	600.000	0.032	600.001	0.232	4.695	1772223557.191
1439	600.000	0.015	600.002	0.083	1.527	1772223557.419
1440	600.000	0.018	600.000	0.239	5.170	1772223557.690
1441	600.000	0.028	599.999	0.152	1.005	1772223557.918
1442	600.000	-0.023	600.000	0.177	4.788	1772223558.200
1443	600.000	-0.009	600.001	0.026	2.186	1772223558.429
1444	600.000	0.025	600.000	0.241	4.476	1772223558.664
1445	600.000	0.015	600.003	0.091	0.172	1772223558.944
1446	600.000	0.005	600.000	0.210	4.434	1772223559.183
1447	600.000	0.005	599.999	0.090	0.922	1772223559.432
1448	600.000	-0.014	599.997	0.156	4.861	1772223559.702
1449	600.000	-0.005	599.999	0.013	6.165	1772223559.920
1450	600.000	0.008	600.003	0.112	4.867	1772223560.156
1451	600.000	-0.000	599.998	0.101	0.750	1772223560.349
1452	600.000	-0.003	600.001	0.366	5.199	1772223560.551
1453	600.000	-0.004	599.999	0.130	1.746	1772223560.807
1454	600.000	0.029	600.000	0.312	5.386	1772223561.053
1455	600.000	0.008	600.001	0.142	2.264	1772223561.302
1456	600.000	0.006	599.998	0.271	4.877	1772223561.555
1457	600.000	-0.030	600.001	0.149	1.473	1772223561.813
1458	600.000	-0.008	599.999	0.304	5.455	1772223562.063
1459	600.000	0.029	600.000	0.167	2.039	1772223562.312
1460	600.000	0.024	600.001	0.284	5.011	1772223562.568
1461	600.000	0.004	600.005	0.078	1.652	1772223562.799
1462	600.000	0.017	600.000	0.325	4.922	1772223563.048
1463	600.000	0.032	600.000	0.215	1.666	1772223563.298
1464	600.000	0.025	600.000	0.282	5.422	1772223563.554
1465	600.000	0.018	599.998	0.082	2.109	1772223563.812
1466	600.000	0.010	600.001	0.220	4.970	1772223564.035
1467	600.000	0.032	600.000	0.151	1.271	1772223564.304
1468	600.000	-0.023	600.002	0.314	4.921	1772223564.562
1469	600.000	0.014	599.999	0.119	1.285	1772223564.825
1470	600.000	0.006	599.998	0.292	5.385	1772223565.087
1471	600.000	0.011	599.998	0.131	2.336	1772223565.329
1472	600.000	0.024	600.001	0.350	4.939	1772223565.571
1473	600.000	0.016	600.001	0.143	1.521	1772223565.835
1474	600.000	-0.019	600.001	0.298	4.967	1772223566.083
1475	600.000	0.038	600.000	0.153	1.821	1772223566.361
1476	600.000	0.014	600.000	0.299	4.870	1772223566.584
1477	600.000	0.016	600.002	0.072	2.065	1772223566.834
1478	600.000	0.007	600.000	0.338	4.987	1772223567.083
1479	600.000	-0.004	599.998	0.123	1.122	1772223567.327
1480	600.000	0.004	599.999	0.295	4.980	1772223567.600
1481	600.000	0.010	599.999	0.072	1.393	1772223567.853
1482	600.000	0.037	600.000	0.312	4.790	1772223568.062
1483	600.000	0.014	600.003	0.093	1.416	1772223568.338
1484	600.000	-0.033	600.001	0.249	5.228	1772223568.604
1485	600.000	-0.024	599.998	0.140	1.285	1772223568.831
1486	600.000	0.044	600.002	0.313	5.058	1772223569.081
1487	600.000	0.003	599.999	0.210	1.342	1772223569.332
1488	600.000	0.018	600.003	0.341	4.490	1772223569.584
1489	600.000	0.006	600.000	0.159	1.365	1772223569.856
1490	600.000	0.001	600.001	0.287	4.481	1772223570.122
1491	600.000	0.026	600.003	0.118	1.190	1772223570.369
1492	600.000	0.035	600.001	0.226	4.258	1772223570.609
1493	600.000	0.022	600.001	0.107	0.894	1772223570.834
1494	600.000	0.025	599.998	0.262	4.647	1772223571.091
1495	600.000	0.033	600.000	0.074	6.136	1772223571.410
1496	600.000	0.020	600.004	0.055	3.625	1772223571.682
1497	600.000	-0.049	600.002	0.144	6.071	1772223571.922
1498	600.000	0.018	599.998	0.037	2.241	1772223572.171
1499	600.000	0.011	599.999	0.119	5.836	1772223572.401
1500	600.000	-0.043	600.000	0.078	4.025	1772223572.677
1501	600.000	0.017	600.001	0.093	5.700	1772223572.929
1502	600.000	-0.028	600.000	0.113	2.550	1772223573.185
1503	600.000	-0.000	600.000	0.174	5.375	1772223573.425
1504	600.000	0.014	600.003	0.136	2.776	1772223573.702
1505	600.000	0.017	600.001	0.188	5.554	1772223573.934
1506	600.000	-0.011	600.001	0.100	2.425	1772223574.178
1507	600.000	-0.006	600.002	0.192	4.875	1772223574.438
1508	600.000	0.009	599.998	0.076	3.519	1772223574.670
1509	600.000	0.002	600.003	0.203	5.368	1772223574.941
1510	600.000	0.040	599.999	0.085	1.555	1772223575.170
1511	600.000	-0.039	600.001	0.210	5.468	1772223575.404
1512	600.000	0.002	600.004	0.049	0.703	1772223575.634
1513	600.000	-0.013	600.005	0.162	5.461	1772223575.894
1514	600.000	0.026	599.997	0.045	3.804	1772223576.141
1515	600.000	-0.026	599.999	0.158	5.833	1772223576.390
1516	600.000	-0.016	600.000	0.110	4.124	1772223576.606
1517	600.000	-0.022	599.997	0.099	5.446	1772223576.883
1518	600.000	0.000	599.997	0.058	3.269	1772223577.117
1519	600.000	0.014	600.002	0.162	5.533	1772223577.378
1520	600.000	-0.022	600.003	0.157	3.934	1772223577.628
1521	600.000	0.064	599.999	0.137	5.467	1772223577.896
1522	600.000	0.012	599.999	0.131	3.551	1772223578.142
1523	600.000	-0.002	599.999	0.126	5.600	1772223578.390
1524	600.000	0.019	600.003	0.050	2.007	1772223578.635
1525	600.000	-0.016	599.997	0.193	5.805	1772223578.881
1526	600.000	0.000	599.998	0.045	3.242	1772223579.148
1527	600.000	0.041	599.999	0.184	5.586	1772223579.384
1528	600.000	0.016	600.001	0.061	3.511	1772223579.659
1529	600.000	0.001	600.001	0.165	5.568	1772223579.893
1530	600.000	-0.008	599.998	0.086	1.961	1772223580.148
1531	600.000	0.011	599.999	0.124	5.598	1772223580.403
1532	600.000	-0.004	600.000	0.062	3.238	1772223580.636
1533	600.000	-0.016	599.999	0.142	5.703	1772223580.879
1534	600.000	-0.006	599.997	0.104	2.588	1772223581.133
1535	600.000	-0.015	599.994	0.161	6.014	1772223581.396
1536	600.000	-0.018	599.999	0.147	2.962	1772223581.646
1537	600.000	0.006	599.999	0.140	5.919	1772223581.877
1538	600.000	0.012	599.999	0.150	3.450	1772223582.137
1539	600.000	-0.023	599.998	0.195	5.377	1772223582.392
1540	600.000	-0.015	600.000	0.118	2.374	1772223582.638
1541	600.000	0.010	600.002	0.235	5.599	1772223582.889
1542	600.000	0.012	600.000	0.147	2.909	1772223583.143
1543	600.000	-0.003	600.002	0.223	5.288	1772223583.405
1544	600.000	0.045	600.002	0.146	1.457	1772223583.651
1545	600.000	0.002	600.002	0.268	5.572	1772223583.914
1546	600.000	0.017	599.999	0.126	2.123	1772223584.134
1547	600.000	-0.006	600.002	0.234	5.436	1772223584.392
1548	600.000	0.037	599.997	0.171	2.002	1772223584.641
1549	600.000	-0.022	600.001	0.174	5.309	1772223584.905
1550	600.000	0.062	600.002	0.139	2.297	1772223585.142
1551	600.000	-0.009	600.004	0.226	5.578	1772223585.373
1552	600.000	0.029	600.000	0.087	2.203	1772223585.650
1553	600.000	0.019	600.000	0.272	5.429	1772223585.883
1554	600.000	0.012	599.999	0.088	1.874	1772223586.135
1555	600.000	-0.030	600.003	0.305	5.277	1772223586.395
1556	600.000	0.030	600.001	0.136	2.311	1772223586.642
1557	600.000	-0.051	599.997	0.250	5.119	1772223586.883
1558	600.000	0.058	599.999	0.185	2.513	1772223587.112
1559	600.000	-0.006	600.000	0.230	5.699	1772223587.384
1560	600.000	-0.008	600.000	0.199	2.191	1772223587.642
1561	600.000	-0.039	599.998	0.256	5.097	1772223587.917
1562	600.000	-0.001	600.002	0.097	1.762	1772223588.162
1563	600.000	-0.006	600.001	0.254	5.328	1772223588.411
1564	600.000	0.014	599.999	0.124	1.564	1772223588.663
1565	600.000	-0.023	599.999	0.282	5.472	1772223588.915
1566	600.000	0.028	599.999	0.198	1.720	1772223589.174
1567	600.000	-0.001	599.997	0.353	5.252	1772223589.414
1568	600.000	0.003	599.998	0.106	2.207	1772223589.652
1569	600.000	-0.031	599.998	0.256	5.265	1772223589.882
1570	600.000	-0.008	599.998	0.136	2.313	1772223590.171
1571	600.000	0.023	600.000	0.239	5.316	1772223590.400
1572	600.000	-0.036	600.002	0.127	2.409	1772223590.687
1573	600.000	0.021	599.999	0.332	5.380	1772223590.912
1574	600.000	-0.024	600.001	0.228	1.420	1772223591.168
1575	600.000	0.004	599.999	0.320	5.164	1772223591.409
1576	600.000	-0.014	600.000	0.157	1.694	1772223591.649
1577	600.000	-0.032	599.998	0.335	5.204	1772223591.901
1578	600.000	-0.005	600.001	0.163	1.844	1772223592.155
1579	600.000	-0.008	600.004	0.255	5.240	1772223592.410
1580	600.000	0.003	599.998	0.186	1.689	1772223592.637
1581	600.000	-0.013	600.003	0.181	6.007	1772223592.841
1582	600.000	0.007	600.000	0.083	3.871	1772223593.132
1583	600.000	0.009	600.000	0.168	5.502	1772223593.368
1584	600.000	0.004	600.000	0.168	2.376	1772223593.625
1585	600.000	-0.013	599.997	0.264	5.913	1772223593.853
1586	600.000	-0.002	600.001	0.138	2.851	1772223594.116
1587	600.000	0.005	599.999	0.142	5.564	1772223594.365
1588	600.000	0.046	600.001	0.127	1.884	1772223594.590
1589	600.000	-0.018	599.999	0.199	5.288	1772223594.896
1590	600.000	-0.002	599.998	0.161	2.091	1772223595.169
1591	600.000	0.018	600.002	0.295	5.619	1772223595.440
1592	600.000	0.038	600.002	0.119	1.937	1772223595.648
1593	600.000	-0.020	600.002	0.218	5.637	1772223595.925
1594	600.000	0.006	599.999	0.199	1.560	1772223596.157
1595	600.000	0.000	599.998	0.271	5.316	1772223596.436
1596	600.000	-0.035	600.002	0.115	1.879	1772223596.672
1597	600.000	0.027	600.000	0.284	5.303	1772223596.959
1598	600.000	0.007	599.999	0.089	1.745	1772223597.164
1599	600.000	-0.001	600.000	0.245	5.472	1772223597.413
1600	600.000	0.002	600.001	0.110	1.672	1772223597.686
1601	600.000	-0.045	600.001	0.231	5.622	1772223597.921
1602	600.000	-0.002	600.000	0.172	2.051	1772223598.176
1603	600.000	-0.016	599.997	0.335	5.511	1772223598.423
1604	600.000	0.026	600.002	0.107	1.748	1772223598.698
1605	600.000	0.013	600.000	0.341	5.058	1772223598.919
1606	600.000	-0.034	599.997	0.127	1.827	1772223599.152
1607	600.000	-0.032	599.995	0.250	5.177	1772223599.419
1608	600.000	0.004	600.001	0.157	2.308	1772223599.670
1609	600.000	0.012	600.003	0.259	5.398	1772223599.930
1610	600.000	-0.013	600.001	0.176	2.046	1772223600.142
1611	600.000	0.034	599.999	0.225	5.365	1772223600.413
1612	600.000	-0.007	599.998	0.266	1.797	1772223600.663
1613	600.000	-0.022	600.000	0.252	5.304	1772223600.895
1614	600.000	-0.029	600.000	0.136	1.468	1772223601.172
1615	600.000	-0.012	600.000	0.223	5.184	1772223601.416
1616	600.000	0.007	600.000	0.235	1.248	1772223601.686
1617	600.000	0.028	600.002	0.281	5.266	1772223601.940
1618	600.000	0.003	600.000	0.160	2.167	1772223602.220
1619	600.000	0.024	599.999	0.321	5.599	1772223602.441
1620	600.000	-0.014	599.998	0.168	2.176	1772223602.677
1621	600.000	-0.037	599.999	0.274	5.339	1772223602.942
1622	600.000	0.047	600.000	0.157	1.714	1772223603.165
1623	600.000	0.010	599.998	0.269	5.516	1772223603.438
1624	600.000	0.032	599.997	0.177	1.497	1772223603.670
1625	600.000	0.006	600.001	0.314	5.251	1772223603.959
1626	600.000	0.030	599.998	0.136	1.143	1772223604.185
1627	600.000	-0.030	599.997	0.297	4.885	1772223604.429
1628	600.000	0.004	599.999	0.130	1.418	1772223604.686
1629	600.000	-0.033	600.001	0.359	4.981	1772223604.944
1630	600.000	-0.040	600.000	0.170	1.517	1772223605.192
1631	600.000	0.046	600.002	0.362	4.948	1772223605.420
1632	600.000	-0.011	600.005	0.133	1.421	1772223605.699
1633	600.000	0.006	599.998	0.246	5.109	1772223605.951
1634	600.000	0.016	600.003	0.232	1.057	1772223606.193
1635	600.000	-0.013	600.002	0.369	5.131	1772223606.435
1636	600.000	0.034	600.000	0.190	1.363	1772223606.657
1637	600.000	-0.014	600.003	0.285	5.254	1772223606.929
1638	600.000	-0.012	599.997	0.181	1.893	1772223607.177
1639	600.000	-0.020	599.999	0.341	5.300	1772223607.448
1640	600.000	-0.011	600.001	0.027	0.886	1772223607.693
1641	600.000	0.010	600.003	0.325	4.947	1772223607.930
1642	600.000	-0.026	599.998	0.130	1.985	1772223608.180
1643	600.000	-0.000	600.000	0.271	5.069	1772223608.434
1644	600.000	-0.001	600.003	0.197	1.643	1772223608.702
1645	600.000	-0.002	600.000	0.252	4.936	1772223608.917
1646	600.000	0.006	600.002	0.159	1.546	1772223609.198
1647	600.000	-0.008	599.998	0.328	4.934	1772223609.430
1648	600.000	0.067	599.998	0.088	1.584	1772223609.671
1649	600.000	0.018	600.000	0.297	4.999	1772223609.946
1650	600.000	-0.005	599.999	0.072	1.691	1772223610.176
1651	600.000	-0.009	600.000	0.264	5.003	1772223610.428
1652	600.000	0.015	600.003	0.105	1.082	1772223610.684
1653	600.000	-0.027	600.000	0.330	4.976	1772223610.938
1654	600.000	0.041	600.001	0.116	1.364	1772223611.199
1655	600.000	0.016	599.999	0.371	4.834	1772223611.447
1656	600.000	0.006	600.000	0.121	1.281	1772223611.706
1657	600.000	-0.007	600.000	0.270	4.550	1772223611.951
1658	600.000	-0.018	600.000	0.101	0.985	1772223612.197
1659	600.000	-0.065	599.999	0.260	4.834	1772223612.428
1660	600.000	-0.028	600.004	0.134	1.213	1772223612.704
1661	600.000	-0.018	600.000	0.223	4.860	1772223612.949
1662	600.000	-0.004	600.001	0.102	1.362	1772223613.193
1663	600.000	-0.014	599.999	0.309	5.068	1772223613.443
1664	600.000	-0.027	599.999	0.107	0.874	1772223613.678
1665	600.000	0.018	600.001	0.263	4.920	1772223613.938
1666	600.000	0.013	600.001	0.181	0.756	1772223614.166
1667	600.000	-0.000	600.003	0.243	4.810	1772223614.438
1668	600.000	0.002	599.999	0.094	0.198	1772223614.693
1669	600.000	-0.036	599.999	0.258	4.732	1772223614.940
1670	600.000	-0.003	599.999	0.104	1.954	1772223615.187
1671	600.000	0.014	600.002	0.286	5.063	1772223615.407
1672	600.000	-0.012	599.999	0.115	0.706	1772223615.699
1673	600.000	-0.026	599.998	0.208	4.680	1772223615.949
1674	600.000	0.014	599.999	0.094	1.387	1772223616.219
1675	600.000	0.041	600.000	0.255	4.754	1772223616.448
1676	600.000	-0.013	599.998	0.085	0.910	1772223616.685
1677	600.000	-0.014	599.997	0.240	4.727	1772223616.935
1678	600.000	0.055	599.999	0.031	1.879	1772223617.179
1679	600.000	0.028	599.999	0.300	4.784	1772223617.421
1680	600.000	-0.062	599.996	0.089	1.532	1772223617.668
1681	600.000	-0.003	600.001	0.234	4.648	1772223617.949
1682	600.000	0.046	600.000	0.055	0.837	1772223618.186
1683	600.000	-0.005	600.001	0.123	4.344	1772223618.454
1684	600.000	-0.017	600.000	0.169	0.402	1772223618.683
1685	600.000	0.017	599.999	0.169	4.429	1772223618.951
1686	600.000	-0.021	599.998	0.114	6.081	1772223619.183
1687	600.000	0.013	599.997	0.252	4.382	1772223619.447
1688	600.000	-0.003	600.001	0.144	6.209	1772223619.687
1689	600.000	0.027	599.997	0.116	4.452	1772223619.927
1690	600.000	0.033	599.998	0.139	6.186	1772223620.194
1691	600.000	0.003	599.996	0.154	4.216	1772223620.457
1692	600.000	-0.011	599.998	0.117	5.167	1772223620.708
1693	600.000	-0.041	600.000	0.106	3.338	1772223620.988
1694	600.000	0.013	599.998	0.185	5.745	1772223621.235
1695	600.000	-0.021	600.003	0.118	2.208	1772223621.494
1696	600.000	-0.038	600.001	0.216	5.505	1772223621.732
1697	600.000	-0.001	599.999	0.169	3.040	1772223621.994
1698	600.000	-0.011	599.998	0.234	5.434	1772223622.212
1699	600.000	-0.014	599.998	0.117	3.477	1772223622.495
1700	600.000	-0.010	599.998	0.097	5.100	1772223622.718
1701	600.000	-0.004	599.998	0.084	2.355	1772223622.987
1702	600.000	-0.012	600.000	0.165	5.336	1772223623.252
1703	600.000	-0.001	599.997	0.163	2.606	1772223623.489
1704	600.000	-0.005	599.999	0.261	5.607	1772223623.742
1705	600.000	0.037	600.003	0.157	2.833	1772223623.957
1706	600.000	-0.024	599.998	0.084	0.000	1772223624.214
1707	600.000	0.044	600.000	0.251	4.123	1772223624.478
1708	600.000	-0.057	600.000	0.057	5.962	1772223624.746
1709	600.000	-0.012	600.000	0.107	2.425	1772223625.005
1710	600.000	0.020	599.999	0.197	5.097	1772223625.212
1711	600.000	0.052	600.000	0.143	2.739	1772223625.482
1712	600.000	-0.006	600.000	0.130	5.801	1772223625.703
1713	600.000	-0.003	600.003	0.145	3.382	1772223625.946
1714	600.000	0.055	600.002	0.135	5.548	1772223626.196
1715	600.000	0.030	600.000	0.183	3.528	1772223626.433
1716	600.000	0.019	599.998	0.170	0.449	1772223626.709
1717	600.000	0.027	600.004	0.109	3.372	1772223626.932
1718	600.000	0.010	600.002	0.126	5.618	1772223627.206
1719	600.000	-0.022	600.001	0.148	2.811	1772223627.460
1720	600.000	0.025	600.002	0.094	5.852	1772223627.715
1721	600.000	-0.008	600.000	0.096	2.721	1772223627.961
1722	600.000	0.018	600.000	0.167	5.272	1772223628.196
1723	600.000	-0.011	599.999	0.156	2.550	1772223628.467
1724	600.000	0.004	600.000	0.175	5.546	1772223628.691
1725	600.000	0.023	600.001	0.123	2.416	1772223628.974
1726	600.000	-0.011	599.999	0.199	5.706	1772223629.195
1727	600.000	0.011	600.002	0.139	2.721	1772223629.460
1728	600.000	0.033	599.999	0.222	5.493	1772223629.714
1729	600.000	0.001	600.001	0.140	2.403	1772223629.964
1730	600.000	-0.008	600.002	0.104	5.767	1772223630.202
1731	600.000	0.028	600.002	0.119	3.130	1772223630.428
1732	600.000	0.008	600.000	0.196	6.156	1772223630.703
1733	600.000	0.015	600.004	0.109	3.654	1772223630.950
1734	600.000	0.064	600.000	0.083	0.471	1772223631.217
1735	600.000	-0.005	600.002	0.174	4.193	1772223631.436
1736	600.000	0.017	600.001	0.143	5.695	1772223631.707
1737	600.000	0.009	600.000	0.083	2.789	1772223631.974
1738	600.000	-0.027	599.995	0.171	5.564	1772223632.177
1739	600.000	0.005	600.000	0.118	4.142	1772223632.438
1740	600.000	0.030	600.002	0.216	1.492	1772223632.692
1741	600.000	0.006	600.001	0.108	1.286	1772223632.959
1742	600.000	0.012	599.998	0.255	5.042	1772223633.222
1743	600.000	0.007	600.002	0.200	4.634	1772223633.453
1744	600.000	-0.011	600.001	0.036	0.841	1772223633.734
1745	600.000	0.015	599.998	0.051	1.532	1772223633.926
1746	600.000	-0.011	599.997	0.058	4.009	1772223634.210
1747	600.000	-0.022	600.002	0.031	5.834	1772223634.436
1748	600.000	-0.044	600.000	0.020	2.999	1772223634.698
1749	600.000	-0.048	600.002	0.035	4.544	1772223634.951
1750	600.000	0.016	599.999	0.004	2.055	1772223635.231
1751	600.000	-0.068	599.992	0.048	4.746	1772223635.465
1752	600.000	-0.013	600.002	0.054	6.164	1772223635.686
1753	600.000	-0.014	599.997	0.041	4.514	1772223635.950
1754	600.000	-0.004	600.001	0.037	0.529	1772223636.202
1755	600.000	-0.011	599.999	0.074	0.279	1772223636.469
1756	600.000	0.036	599.997	0.041	2.460	1772223636.700
1757	600.000	0.035	599.997	0.041	4.805	1772223636.945
1758	600.000	0.028	600.000	0.022	4.126	1772223637.208
1759	600.000	-0.000	599.998	0.025	5.425	1772223637.438
1760	600.000	0.039	600.003	0.082	0.179	1772223637.717
1761	600.000	0.016	600.004	0.006	5.005	1772223637.961
1762	600.000	-0.028	600.004	0.071	4.238	1772223638.220
1763	600.000	-0.013	600.000	0.009	3.216	1772223638.474
1764	600.000	-0.039	599.999	0.095	0.413	1772223638.731
1765	600.000	-0.001	600.000	0.079	6.262	1772223638.984
1766	600.000	0.001	600.003	0.040	5.938	1772223639.261
1767	600.000	0.024	600.001	0.090	2.894	1772223639.497
1768	600.000	0.024	600.000	0.094	1.043	1772223639.739
1769	600.000	-0.033	600.002	0.036	5.787	1772223639.989
1770	600.000	-0.014	599.999	0.052	1.231	1772223640.213
1771	600.000	-0.025	600.000	0.023	2.254	1772223640.494
1772	600.000	0.005	599.997	0.067	2.243	1772223640.731
1773	600.000	0.043	599.997	0.100	0.689	1772223640.976
1774	600.000	0.016	599.998	0.034	6.051	1772223641.231
1775	600.000	-0.006	599.998	0.068	3.705	1772223641.486
1776	600.000	0.004	600.000	0.054	1.042	1772223641.740
1777	600.000	-0.012	599.999	0.058	4.680	1772223641.970
1778	600.000	-0.004	599.999	0.058	0.671	1772223642.232
1779	600.000	0.050	600.001	0.104	0.182	1772223642.480
1780	600.000	-0.059	599.997	0.067	4.365	1772223642.744
1781	600.000	0.040	600.003	0.031	2.372	1772223642.988
1782	600.000	0.000	600.001	0.071	5.868	1772223643.231
1783	600.000	-0.041	599.999	0.051	6.280	1772223643.478
1784	600.000	0.018	600.003	0.053	1.020	1772223643.733
1785	600.000	0.012	600.001	0.024	0.568	1772223643.995
1786	600.000	-0.075	600.000	0.037	4.106	1772223644.210
1787	600.000	0.006	600.000	0.097	4.276	1772223644.483
1788	600.000	0.024	600.001	0.080	0.301	1772223644.749
1789	600.000	-0.009	600.002	0.085	5.660	1772223644.999
1790	600.000	0.018	600.001	0.089	6.260	1772223645.228
1791	600.000	-0.019	599.999	0.057	0.638	1772223645.454
1792	600.000	-0.007	599.999	0.052	0.903	1772223645.720
1793	600.000	-0.002	599.998	0.034	5.581	1772223645.982
1794	600.000	0.072	599.997	0.041	1.687	1772223646.234
1795	600.000	-0.005	600.002	0.030	0.726	1772223646.491
1796	600.000	0.012	600.000	0.035	1.169	1772223646.739
1797	600.000	0.020	599.997	0.022	2.095	1772223646.983
1798	600.000	-0.012	600.000	0.047	4.124	1772223647.216
1799	600.000	0.012	600.002	0.097	2.939	1772223647.462
1800	600.000	0.033	599.995	0.027	1.182	1772223647.722
1801	600.000	0.009	600.000	0.021	2.931	1772223647.991
1802	600.000	0.005	600.000	0.052	6.164	1772223648.228
1803	600.000	0.035	599.998	0.054	1.264	1772223648.468
1804	600.000	-0.010	600.002	0.038	0.449	1772223648.751
1805	600.000	0.006	600.001	0.104	0.410	1772223648.975
1806	600.000	0.016	600.000	0.084	1.130	1772223649.237
1807	600.000	0.018	599.999	0.013	0.398	1772223649.460
1808	600.000	0.033	600.004	0.031	4.069	1772223649.723
1809	600.000	0.008	600.003	0.038	2.148	1772223649.964
1810	600.000	-0.036	600.000	0.092	0.507	1772223650.247
1811	600.000	-0.004	600.001	0.030	4.509	1772223650.486
1812	600.000	0.019	600.001	0.110	0.356	1772223650.736
1813	600.000	0.009	599.998	0.060	1.969	1772223650.990
1814	600.000	-0.005	599.997	0.096	0.422	1772223651.246
1815	600.000	0.033	600.001	0.070	3.220	1772223651.511
1816	600.000	0.022	599.999	0.141	0.663	1772223651.727
1817	600.000	-0.035	600.000	0.008	3.802	1772223651.964
1818	600.000	0.040	599.996	0.091	2.847	1772223652.244
1819	600.000	-0.018	599.998	0.034	0.513	1772223652.491
1820	600.000	0.015	599.998	0.027	1.925	1772223652.718
1821	600.000	-0.011	599.997	0.066	3.828	1772223652.976
1822	600.000	-0.062	599.998	0.029	5.036	1772223653.237
1823	600.000	0.035	600.002	0.044	0.906	1772223653.473
1824	600.000	-0.006	600.001	0.113	6.072	1772223653.752
1825	600.000	-0.004	600.000	0.026	1.117	1772223653.974
1826	600.000	0.033	599.996	0.061	1.832	1772223654.232
1827	600.000	0.023	599.999	0.007	4.886	1772223654.474
1828	600.000	-0.001	600.002	0.026	2.872	1772223654.736
1829	600.000	0.052	599.999	0.034	1.338	1772223654.994
1830	600.000	-0.028	600.004	0.099	0.036	1772223655.215
1831	600.000	0.012	600.001	0.075	0.621	1772223655.498
1832	600.000	0.016	600.000	0.041	2.301	1772223655.738
1833	600.000	-0.012	599.999	0.057	1.438	1772223655.982
1834	600.000	-0.003	599.999	0.033	5.171	1772223656.245
1835	600.000	0.051	599.999	0.057	6.212	1772223656.474
1836	600.000	0.035	599.997	0.002	0.943	1772223656.734
1837	600.000	0.007	599.996	0.051	4.782	1772223656.967
1838	600.000	-0.010	599.999	0.022	2.180	1772223657.231
1839	600.000	0.013	600.000	0.120	1.075	1772223657.484
1840	600.000	-0.015	599.999	0.067	0.985	1772223657.731
1841	600.000	0.012	599.998	0.145	0.287	1772223657.963
1842	600.000	0.040	599.997	0.053	0.930	1772223658.210
1843	600.000	0.028	599.999	0.088	0.459	1772223658.482
1844	600.000	-0.015	599.999	0.087	5.187	1772223658.737
1845	600.000	0.026	600.002	0.034	5.741	1772223659.000
1846	600.000	-0.039	600.003	0.119	5.749	1772223659.228
1847	600.000	0.023	600.001	0.033	2.329	1772223659.471
1848	600.000	0.019	600.003	0.055	3.237	1772223659.747
1849	600.000	0.009	600.002	0.037	0.820	1772223659.992
1850	600.000	-0.036	599.996	0.046	0.780	1772223660.230
1851	600.000	0.002	599.994	0.009	2.607	1772223660.476
1852	600.000	-0.006	599.996	0.101	4.494	1772223660.728
1853	600.000	0.010	600.003	0.109	5.849	1772223660.972
1854	600.000	0.010	600.003	0.120	0.676	1772223661.255
1855	600.000	-0.001	600.002	0.129	0.334	1772223661.468
1856	600.000	-0.009	600.002	0.039	0.799	1772223661.722
1857	600.000	-0.028	600.000	0.014	2.263	1772223662.000
1858	600.000	-0.014	600.001	0.038	1.353	1772223662.232
1859	600.000	-0.016	600.000	0.044	4.951	1772223662.481
1860	600.000	-0.031	600.000	0.018	1.405	1772223662.719
1861	600.000	-0.013	600.002	0.038	3.432	1772223662.936
1862	600.000	-0.027	599.999	0.048	5.692	1772223663.178
1863	600.000	-0.021	600.002	0.025	0.778	1772223663.438
1864	600.000	0.003	599.999	0.070	0.123	1772223663.691
1865	600.000	0.014	600.000	0.052	5.843	1772223663.945
1866	600.000	0.020	599.999	0.101	0.722	1772223664.217
1867	600.000	0.010	599.999	0.096	4.419	1772223664.466
1868	600.000	-0.020	600.000	0.080	3.735	1772223664.685
1869	600.000	0.005	600.002	0.067	0.165	1772223664.959
1870	600.000	0.030	600.000	0.038	5.258	1772223665.204
1871	600.000	-0.010	599.998	0.106	1.436	1772223665.447
1872	600.000	0.018	599.999	0.017	2.113	1772223665.711
1873	600.000	0.021	600.000	0.056	0.991	1772223665.955
1874	600.000	-0.006	600.003	0.017	0.405	1772223666.188
1875	600.000	0.004	599.996	0.048	3.433	1772223666.430
1876	600.000	-0.062	600.002	0.067	5.683	1772223666.701
1877	600.000	0.035	599.997	0.082	2.419	1772223666.951
1878	600.000	-0.022	600.000	0.030	5.277	1772223667.201
1879	600.000	0.008	599.999	0.022	2.527	1772223667.469
1880	600.000	0.012	599.999	0.022	2.902	1772223667.689
1881	600.000	0.053	600.001	0.041	5.407	1772223667.955
1882	600.000	-0.026	600.000	0.028	0.674	1772223668.181
1883	600.000	0.017	600.000	0.028	3.380	1772223668.477
1884	600.000	0.008	599.996	0.031	1.784	1772223668.685
1885	600.000	0.019	599.996	0.067	0.281	1772223668.960
1886	600.000	-0.018	600.001	0.044	5.832	1772223669.217
1887	600.000	-0.017	599.996	0.050	1.436	1772223669.465
1888	600.000	-0.011	600.001	0.056	0.559	1772223669.697
1889	600.000	0.004	600.002	0.009	0.913	1772223669.977
1890	600.000	-0.030	600.003	0.064	3.694	1772223670.203
1891	600.000	-0.020	600.002	0.067	0.221	1772223670.444
1892	600.000	-0.001	599.999	0.056	4.176	1772223670.722
1893	600.000	-0.047	600.000	0.042	5.750	1772223670.958
1894	600.000	0.005	600.000	0.032	6.129	1772223671.195
1895	600.000	-0.032	600.001	0.109	3.735	1772223671.462
1896	600.000	-0.018	599.999	0.024	4.897	1772223671.704
1897	600.000	0.010	599.999	0.039	4.677	1772223672.246
1898	600.000	0.009	600.000	0.068	0.936	1772223672.461
1899	600.000	-0.036	600.002	0.048	3.504	1772223672.685
1900	600.000	0.016	600.000	0.097	0.347	1772223672.956
1901	600.000	-0.012	599.998	0.045	1.817	1772223673.222
1902	600.000	-0.004	599.998	0.053	2.540	1772223673.452
1903	600.000	-0.050	600.003	0.070	3.494	1772223673.686
1904	600.000	-0.038	599.997	0.023	3.335	1772223673.927
1905	600.000	-0.018	600.000	0.080	0.601	1772223674.195
1906	600.000	-0.007	599.999	0.027	0.099	1772223674.443
1907	600.000	-0.003	600.001	0.027	3.347	1772223674.716
1908	600.000	-0.008	600.001	0.071	1.089	1772223674.951
1909	600.000	-0.003	600.002	0.012	4.825	1772223675.198
1910	600.000	0.015	600.000	0.073	0.192	1772223675.448
