Point No.	Frequency Set (GHz)	THz Photocurrent (nA)	Frequency Act (GHz)	Amplitude (via StrMod)	Phase (via StrMod)	Timestamp (s)
1	400.000	-0.019	400.001	0.316	1.119	1772225992.898
2	400.000	0.010	400.000	0.342	1.175	1772225993.097
3	400.000	0.035	400.002	0.303	1.064	1772225993.304
4	400.000	-0.051	399.997	0.272	1.158	1772225993.536
5	400.000	0.038	400.000	0.388	1.074	1772225993.772
6	400.000	-0.037	399.998	0.364	1.227	1772225993.975
7	400.000	-0.015	399.999	0.262	1.193	1772225994.192
8	400.000	-0.035	399.998	0.464	1.254	1772225994.426
9	400.000	0.001	399.999	0.290	1.027	1772225994.619
10	400.000	0.033	400.002	0.380	1.483	1772225994.874
11	400.000	0.016	400.000	0.386	1.224	1772225995.101
12	400.000	-0.049	399.998	0.364	1.028	1772225995.296
13	400.000	0.070	399.999	0.255	1.078	1772225995.497
14	400.000	0.013	400.001	0.293	1.542	1772225995.700
15	400.000	-0.020	399.999	0.398	1.202	1772225995.933
16	400.000	-0.005	399.994	0.457	1.201	1772225996.217
17	400.000	-0.008	400.000	0.434	1.143	1772225996.411
18	400.000	0.008	399.999	0.381	1.073	1772225996.621
19	400.000	0.002	400.007	0.299	1.447	1772225996.804
20	400.000	-0.015	400.003	0.492	1.154	1772225997.015
21	400.000	0.017	399.998	0.352	1.207	1772225997.271
22	400.000	-0.020	399.999	0.325	1.084	1772225997.487
23	400.000	-0.001	400.000	0.485	1.389	1772225997.689
24	400.000	0.007	399.999	0.382	1.200	1772225997.949
25	400.000	0.012	399.997	0.359	1.113	1772225998.180
26	400.000	0.080	400.000	0.347	1.347	1772225998.368
27	400.000	-0.020	400.002	0.437	1.303	1772225998.593
28	400.000	0.008	400.002	0.411	1.207	1772225998.817
29	400.000	-0.028	399.998	0.514	1.062	1772225999.016
30	400.000	0.036	400.000	0.437	1.279	1772225999.251
31	400.000	0.005	400.001	0.334	0.887	1772225999.430
32	400.000	-0.020	399.999	0.368	1.037	1772225999.642
33	400.000	-0.033	400.000	0.427	1.159	1772225999.912
34	400.000	0.038	400.002	0.453	1.142	1772226000.132
35	400.000	-0.003	400.000	0.387	0.951	1772226000.321
36	400.000	0.022	399.998	0.354	0.933	1772226000.582
37	400.000	0.042	400.003	0.496	1.190	1772226000.781
38	400.000	0.101	399.999	0.151	5.927	1772226000.986
39	400.000	0.032	399.998	0.226	1.594	1772226001.199
40	400.000	0.018	400.002	0.207	0.926	1772226001.420
41	400.000	0.046	400.001	0.069	2.227	1772226001.627
42	400.000	0.087	400.000	0.209	1.186	1772226001.805
43	400.000	-0.049	399.998	0.035	5.314	1772226001.983
44	400.000	0.024	399.998	0.195	1.436	1772226002.167
45	400.000	0.025	399.998	0.128	1.881	1772226002.380
46	400.000	-0.056	399.997	0.206	1.348	1772226002.627
47	400.000	-0.025	400.001	0.132	1.626	1772226002.812
48	400.000	0.012	400.000	0.052	6.130	1772226003.006
49	400.000	-0.060	400.000	0.081	5.609	1772226003.243
50	400.000	-0.027	400.002	0.089	0.873	1772226003.436
51	400.000	-0.050	399.999	0.104	0.660	1772226003.710
52	400.000	0.000	399.998	0.448	1.120	1772226003.940
53	400.000	0.007	399.999	0.144	1.966	1772226004.208
54	400.000	0.001	400.004	0.264	1.089	1772226004.439
55	400.000	0.003	400.005	0.297	1.818	1772226004.612
56	400.000	-0.013	399.998	0.109	1.081	1772226004.799
57	400.000	-0.074	400.003	0.191	0.856	1772226004.983
58	400.000	0.054	399.997	0.026	0.335	1772226005.207
59	400.000	-0.048	399.998	0.332	1.386	1772226005.436
60	400.000	-0.003	399.999	0.134	0.986	1772226005.631
61	400.000	0.007	400.002	0.095	0.835	1772226005.800
62	400.000	-0.023	400.001	0.090	1.365	1772226006.004
63	400.000	-0.036	400.002	0.215	0.837	1772226006.181
64	400.000	-0.001	400.004	0.166	0.924	1772226006.356
65	400.000	-0.046	400.000	0.296	0.972	1772226006.561
66	400.000	-0.036	399.999	0.042	5.533	1772226006.812
67	400.000	0.012	400.003	0.321	1.066	1772226007.012
68	400.000	0.021	399.999	0.137	5.888	1772226007.249
69	400.000	0.012	400.002	0.197	1.359	1772226007.495
70	400.000	-0.008	400.000	0.088	0.747	1772226007.714
71	400.000	-0.050	400.003	0.154	1.432	1772226007.938
72	400.000	-0.068	400.001	0.245	1.102	1772226008.194
73	400.000	-0.056	399.997	0.214	1.272	1772226008.386
74	400.000	-0.062	400.001	0.285	1.419	1772226008.602
75	400.000	-0.051	399.998	0.142	1.315	1772226008.795
76	400.000	-0.022	400.002	0.199	1.301	1772226008.995
77	400.000	-0.008	400.003	0.070	5.898	1772226009.243
78	400.000	-0.043	399.998	0.258	1.184	1772226009.460
79	400.000	0.063	400.002	0.112	3.695	1772226009.697
80	400.000	0.023	400.000	0.123	1.832	1772226009.936
81	400.000	0.008	400.003	0.198	1.947	1772226010.119
82	400.000	0.001	400.001	0.361	1.315	1772226010.318
83	400.000	0.000	400.000	0.176	1.460	1772226010.552
84	400.000	0.049	399.999	0.140	1.836	1772226010.736
85	400.000	0.041	400.004	0.137	2.358	1772226010.967
86	400.000	0.075	400.000	0.133	2.744	1772226011.201
87	400.000	0.010	400.001	0.115	1.049	1772226011.420
88	400.000	-0.025	399.998	0.032	6.120	1772226011.640
89	400.000	-0.029	400.002	0.281	1.600	1772226011.875
90	400.000	0.050	399.998	0.042	0.982	1772226012.066
91	400.000	-0.005	399.998	0.100	4.966	1772226012.300
92	400.000	-0.000	400.000	0.187	1.096	1772226012.530
93	400.000	-0.042	400.003	0.179	1.036	1772226012.755
94	400.000	-0.035	400.000	0.240	0.760	1772226012.986
95	400.000	-0.060	400.003	0.088	1.317	1772226013.186
96	400.000	-0.041	400.005	0.045	5.451	1772226013.427
97	400.000	0.022	399.998	0.140	1.563	1772226013.637
98	400.000	-0.064	399.998	0.153	1.042	1772226013.857
99	400.000	-0.057	399.998	0.057	3.621	1772226014.031
100	400.000	-0.019	399.997	0.020	4.296	1772226014.226
101	400.000	0.017	400.000	0.056	3.034	1772226014.425
102	400.000	-0.026	400.003	0.084	3.005	1772226014.629
103	400.000	-0.060	400.000	0.267	1.205	1772226014.821
104	400.000	-0.026	400.002	0.232	1.879	1772226015.002
105	400.000	-0.009	399.998	0.394	1.850	1772226015.197
106	400.000	-0.009	400.001	0.083	1.231	1772226015.437
107	400.000	0.065	400.000	0.086	1.459	1772226015.714
108	400.000	-0.044	400.000	0.122	4.860	1772226015.942
109	400.000	0.090	399.998	0.363	1.672	1772226016.116
110	400.000	0.009	400.000	0.039	3.233	1772226016.310
111	400.000	0.059	399.997	0.077	2.023	1772226016.567
112	400.000	0.009	400.002	0.161	1.985	1772226016.740
113	400.000	0.006	400.001	0.138	1.333	1772226016.938
114	400.000	-0.001	400.001	0.182	2.216	1772226017.120
115	400.000	0.032	400.002	0.063	1.592	1772226017.345
116	400.000	-0.033	399.998	0.285	1.765	1772226017.587
117	400.000	0.052	399.998	0.119	6.123	1772226017.814
118	400.000	0.011	400.000	0.255	1.060	1772226018.009
119	400.000	-0.062	400.001	0.205	0.991	1772226018.261
120	400.000	-0.052	399.999	0.107	3.556	1772226018.508
121	400.000	0.040	399.998	0.076	4.938	1772226018.741
122	400.000	0.007	399.997	0.034	1.315	1772226019.012
123	400.000	-0.013	399.998	0.057	5.775	1772226019.240
124	400.000	0.029	399.994	0.172	1.295	1772226019.419
125	400.000	-0.008	400.001	0.300	0.846	1772226019.596
126	400.000	-0.014	399.998	0.095	3.854	1772226019.802
127	400.000	-0.020	399.999	0.179	1.221	1772226020.086
128	400.000	-0.026	400.005	0.398	0.804	1772226020.313
129	400.000	0.057	400.002	0.089	3.596	1772226020.482
130	400.000	-0.008	399.997	0.182	5.174	1772226020.671
131	400.000	0.022	400.003	0.465	4.079	1772226020.957
132	400.000	0.029	400.001	0.723	4.214	1772226021.180
133	400.000	0.026	399.998	0.723	4.291	1772226021.374
134	400.000	-0.019	400.001	0.778	4.165	1772226021.598
135	400.000	-0.010	399.999	0.745	4.181	1772226021.841
136	400.000	-0.006	400.006	0.780	4.266	1772226022.079
137	400.000	0.014	400.000	0.858	4.130	1772226022.325
138	400.000	0.016	400.000	0.919	4.321	1772226022.517
139	400.000	-0.041	400.002	0.940	4.132	1772226022.753
140	400.000	-0.068	400.001	0.826	4.157	1772226023.008
141	400.000	0.048	400.001	0.604	4.063	1772226023.198
142	400.000	0.003	400.001	1.030	1.233	1772226023.420
143	400.000	-0.051	400.001	0.508	5.073	1772226023.647
144	400.000	0.000	400.000	0.479	3.162	1772226023.909
145	400.000	-0.049	399.999	0.956	1.009	1772226024.090
146	400.000	-0.020	399.998	0.537	5.036	1772226024.299
147	400.000	0.053	400.003	0.417	3.143	1772226024.530
148	400.000	0.024	400.001	1.096	1.114	1772226024.723
149	400.000	0.037	399.997	0.590	5.057	1772226024.913
150	400.000	0.016	399.999	0.626	3.891	1772226025.113
151	400.000	0.048	400.000	1.009	1.225	1772226025.356
152	400.000	-0.040	399.999	0.424	5.243	1772226025.576
153	400.000	-0.024	400.000	0.480	3.609	1772226025.796
154	400.000	0.034	400.001	1.045	1.202	1772226026.038
155	400.000	0.050	400.002	0.650	4.709	1772226026.280
156	400.000	-0.019	400.001	0.431	2.385	1772226026.518
157	400.000	0.058	400.001	0.983	0.895	1772226026.718
158	400.000	0.017	400.001	0.734	4.505	1772226026.929
159	400.000	0.053	399.999	0.508	2.351	1772226027.183
160	400.000	0.029	400.002	0.471	0.233	1772226027.435
161	400.000	-0.010	399.998	0.634	4.184	1772226027.682
162	400.000	0.032	400.001	1.073	1.343	1772226027.930
163	400.000	0.031	400.000	0.643	4.871	1772226028.160
164	400.000	0.005	399.998	0.450	3.206	1772226028.364
165	400.000	-0.028	400.002	0.996	1.107	1772226028.624
166	400.000	0.040	400.000	0.757	4.472	1772226028.834
167	400.000	-0.006	400.004	0.364	2.566	1772226029.034
168	400.000	0.030	400.000	0.934	0.958	1772226029.218
169	400.000	-0.036	399.999	0.595	4.844	1772226029.409
170	400.000	-0.018	399.995	0.524	3.520	1772226029.609
171	400.000	0.027	399.999	1.109	1.231	1772226029.795
172	400.000	0.004	400.000	0.530	6.107	1772226029.996
173	400.000	0.049	400.000	0.746	4.086	1772226030.227
174	400.000	0.002	400.001	0.875	1.477	1772226030.427
175	400.000	-0.001	400.004	0.424	6.264	1772226030.616
176	400.000	-0.060	400.004	0.932	4.215	1772226030.794
177	400.000	0.074	400.000	0.706	1.762	1772226031.026
178	400.000	0.023	400.000	0.562	0.454	1772226031.268
179	400.000	-0.005	399.998	0.678	3.993	1772226031.508
180	400.000	0.020	399.999	0.987	1.313	1772226031.750
181	400.000	0.034	399.999	0.436	5.744	1772226031.957
182	400.000	0.040	399.999	0.457	3.741	1772226032.182
183	400.000	0.003	400.000	1.097	1.139	1772226032.435
184	400.000	-0.062	400.002	0.732	4.883	1772226032.627
185	400.000	0.000	400.000	0.696	3.652	1772226032.818
186	400.000	-0.060	399.999	1.069	1.201	1772226033.046
187	400.000	-0.007	400.002	0.517	5.178	1772226033.259
188	400.000	0.030	400.004	0.481	3.491	1772226033.498
189	400.000	-0.041	400.000	1.124	1.143	1772226033.679
190	400.000	0.031	400.001	0.463	5.081	1772226033.885
191	400.000	-0.029	400.002	0.568	3.620	1772226034.122
192	400.000	-0.019	400.000	1.133	1.373	1772226034.308
193	400.000	-0.035	399.997	0.484	5.903	1772226034.523
194	400.000	0.008	400.000	0.661	4.108	1772226034.753
195	400.000	-0.018	400.000	1.084	1.297	1772226034.948
196	400.000	0.008	400.001	0.455	5.424	1772226035.206
197	400.000	0.007	400.000	0.375	2.967	1772226035.464
198	400.000	-0.006	400.002	0.942	0.971	1772226035.668
199	400.000	0.019	399.999	0.721	4.835	1772226035.886
200	400.000	-0.042	400.001	0.396	2.426	1772226036.125
201	400.000	-0.053	400.000	0.838	0.901	1772226036.321
202	400.000	-0.036	400.003	0.667	4.881	1772226036.501
203	400.000	-0.027	400.003	0.537	3.899	1772226036.678
204	400.000	-0.047	400.001	1.020	1.244	1772226036.871
205	400.000	0.001	399.999	0.588	5.217	1772226037.128
206	400.000	-0.015	400.005	0.460	2.962	1772226037.381
207	400.000	0.001	400.000	0.871	1.030	1772226037.619
208	400.000	0.017	400.003	0.900	4.693	1772226037.811
209	400.000	-0.022	399.998	0.448	3.196	1772226038.011
210	400.000	0.014	399.999	1.208	1.116	1772226038.193
211	400.000	0.026	399.999	0.727	5.069	1772226038.393
212	400.000	-0.011	400.001	0.442	3.555	1772226038.618
213	400.000	0.034	400.001	1.204	1.230	1772226038.816
214	400.000	0.047	399.999	0.480	5.788	1772226039.019
215	400.000	-0.038	400.002	0.480	3.565	1772226039.250
216	400.000	0.059	400.001	1.111	1.271	1772226039.452
217	400.000	-0.019	399.998	0.493	5.166	1772226039.680
218	400.000	-0.058	399.999	0.468	3.811	1772226039.877
219	400.000	-0.001	399.997	1.083	1.161	1772226040.129
220	400.000	0.073	400.001	0.616	5.114	1772226040.305
221	400.000	0.010	399.999	0.687	4.003	1772226040.506
222	400.000	0.019	400.001	1.053	1.360	1772226040.766
223	400.000	-0.024	399.998	0.473	5.026	1772226041.006
224	400.000	0.010	400.003	0.439	3.044	1772226041.231
225	400.000	-0.014	400.001	1.049	0.974	1772226041.440
226	400.000	0.018	400.001	0.578	4.724	1772226041.647
227	400.000	-0.018	399.996	0.415	2.721	1772226041.887
228	400.000	0.043	399.999	1.007	0.970	1772226042.083
229	400.000	-0.016	400.000	0.803	4.515	1772226042.337
230	400.000	0.057	400.000	0.594	1.886	1772226042.590
231	400.000	0.010	400.000	0.584	0.326	1772226042.806
232	400.000	-0.031	399.999	0.656	4.123	1772226043.071
233	400.000	0.036	400.000	1.044	1.398	1772226043.244
234	400.000	0.054	399.999	0.506	6.281	1772226043.442
235	400.000	-0.039	400.004	0.774	4.270	1772226043.700
236	400.000	0.009	399.996	0.932	1.434	1772226043.943
237	400.000	-0.012	400.002	0.563	5.153	1772226044.179
238	400.000	0.019	400.002	0.348	3.248	1772226044.429
239	400.000	0.083	399.998	0.924	1.121	1772226044.628
240	400.000	0.010	399.999	0.541	5.073	1772226044.805
241	400.000	-0.017	400.001	0.404	3.334	1772226045.036
242	400.000	-0.070	399.998	1.048	1.208	1772226045.245
243	400.000	-0.010	400.001	0.610	4.711	1772226045.499
244	400.000	-0.040	399.998	0.462	2.984	1772226045.698
245	400.000	-0.046	399.999	0.992	1.035	1772226045.928
246	400.000	0.057	399.999	0.685	4.606	1772226046.200
247	400.000	-0.082	400.002	0.768	1.713	1772226046.433
248	400.000	-0.014	400.002	0.553	0.555	1772226046.613
249	400.000	-0.001	400.001	0.769	4.553	1772226046.812
250	400.000	0.002	399.999	0.370	2.556	1772226047.000
251	400.000	0.025	399.999	0.935	0.904	1772226047.248
252	400.000	-0.035	400.000	0.749	4.522	1772226047.451
253	400.000	0.008	400.004	0.722	2.015	1772226047.682
254	400.000	0.036	399.999	0.629	0.428	1772226047.945
255	400.000	-0.007	400.002	0.778	4.149	1772226048.143
256	400.000	0.033	399.998	0.724	1.828	1772226048.345
257	400.000	-0.024	399.999	0.612	0.455	1772226048.594
258	400.000	0.041	399.998	0.624	4.092	1772226048.845
259	400.000	0.021	400.001	1.016	1.365	1772226049.068
260	400.000	0.039	399.999	0.620	5.464	1772226049.306
261	400.000	0.012	400.001	0.490	3.621	1772226049.550
262	400.000	-0.016	400.000	1.055	1.078	1772226049.734
263	400.000	0.032	400.001	0.617	5.385	1772226049.959
264	400.000	0.025	400.005	0.416	3.434	1772226050.208
265	400.000	-0.007	400.002	1.023	1.138	1772226050.399
266	400.000	0.023	400.003	0.625	5.121	1772226050.600
267	400.000	0.053	399.999	0.435	3.501	1772226050.841
268	400.000	-0.000	399.999	0.925	1.162	1772226051.081
269	400.000	0.033	399.999	0.784	4.706	1772226051.253
270	400.000	-0.010	399.997	0.387	3.611	1772226051.460
271	400.000	0.065	399.998	0.998	1.199	1772226051.691
272	400.000	0.062	400.000	0.726	4.824	1772226051.900
273	400.000	-0.022	400.000	0.441	3.394	1772226052.094
274	400.000	-0.040	400.000	1.149	1.265	1772226052.300
275	400.000	0.065	399.998	0.704	4.933	1772226052.530
276	400.000	0.004	400.000	0.349	3.075	1772226052.793
277	400.000	-0.016	399.999	0.854	0.967	1772226053.040
278	400.000	-0.017	400.002	0.732	4.424	1772226053.286
279	400.000	0.032	399.999	0.691	1.840	1772226053.487
280	400.000	-0.010	399.996	0.684	0.481	1772226053.718
281	400.000	0.082	400.002	0.721	4.435	1772226053.882
282	400.000	-0.045	400.000	0.437	2.592	1772226054.083
283	400.000	0.034	399.997	1.091	0.982	1772226054.265
284	400.000	-0.015	400.000	0.735	4.767	1772226054.477
285	400.000	0.002	400.003	0.336	3.298	1772226054.731
286	400.000	-0.046	399.996	0.799	0.909	1772226054.962
287	400.000	0.015	399.997	0.760	4.483	1772226055.170
288	400.000	0.027	399.999	0.504	2.093	1772226055.429
289	400.000	0.042	399.999	0.550	0.652	1772226055.627
290	400.000	-0.070	400.004	0.726	4.401	1772226055.822
291	400.000	-0.038	399.998	0.465	2.115	1772226056.027
292	400.000	-0.005	399.999	0.698	0.644	1772226056.276
293	400.000	0.009	400.002	0.725	4.477	1772226056.482
294	400.000	-0.027	399.999	0.756	1.710	1772226056.708
295	400.000	0.000	399.998	0.631	0.706	1772226056.904
296	400.000	-0.030	400.001	0.750	4.206	1772226057.171
297	400.000	0.026	399.998	0.843	1.600	1772226057.400
298	400.000	-0.011	399.999	0.452	5.860	1772226057.679
299	400.000	0.079	399.998	0.459	3.501	1772226057.900
300	400.000	-0.002	400.001	1.052	1.283	1772226058.100
301	400.000	-0.013	400.000	0.519	5.177	1772226058.346
302	400.000	-0.055	400.002	0.332	2.490	1772226058.608
303	400.000	0.014	399.997	0.744	0.936	1772226058.850
304	400.000	0.003	400.002	0.695	4.524	1772226059.087
305	400.000	0.053	399.996	0.606	1.800	1772226059.293
306	400.000	-0.009	399.997	0.614	0.579	1772226059.536
307	400.000	0.044	400.001	0.712	4.171	1772226059.786
308	400.000	-0.021	400.000	0.916	1.481	1772226059.995
309	400.000	0.026	399.998	0.497	6.113	1772226060.202
310	400.000	0.006	399.998	0.774	4.135	1772226060.381
311	400.000	-0.037	400.003	0.752	1.574	1772226060.607
312	400.000	0.035	399.999	0.459	6.108	1772226060.868
313	400.000	0.002	400.000	0.531	3.902	1772226061.098
314	400.000	-0.022	399.998	0.917	1.277	1772226061.359
315	400.000	0.014	400.002	0.657	4.905	1772226061.587
316	400.000	-0.004	399.999	0.331	3.196	1772226061.772
317	400.000	0.045	399.998	0.950	1.276	1772226061.961
318	400.000	0.018	400.000	0.578	5.099	1772226062.236
319	400.000	-0.011	400.002	0.378	2.633	1772226062.463
320	400.000	0.037	400.000	0.707	0.792	1772226062.724
321	400.000	-0.046	400.000	0.731	4.273	1772226062.960
322	400.000	0.032	400.000	0.721	1.848	1772226063.134
323	400.000	-0.011	400.005	0.615	0.881	1772226063.331
324	400.000	-0.060	400.002	0.634	4.436	1772226063.598
325	400.000	-0.008	400.000	0.586	1.898	1772226063.787
326	400.000	0.030	399.998	0.545	0.495	1772226064.010
327	400.000	0.036	400.003	0.842	4.283	1772226064.209
328	400.000	0.029	399.999	0.663	1.766	1772226064.415
329	400.000	0.058	399.998	0.740	0.904	1772226064.613
330	400.000	-0.002	399.998	0.753	4.765	1772226064.814
331	400.000	-0.011	400.001	0.426	2.384	1772226065.051
332	400.000	0.074	400.002	0.941	0.965	1772226065.232
333	400.000	0.024	400.001	0.717	4.736	1772226065.410
334	400.000	0.008	400.003	0.296	3.883	1772226065.608
335	400.000	-0.013	399.998	0.994	1.250	1772226065.865
336	400.000	0.010	400.002	0.702	4.950	1772226066.040
337	400.000	0.007	400.001	0.484	3.763	1772226066.241
338	400.000	-0.030	400.001	1.016	1.358	1772226066.473
339	400.000	-0.017	400.000	0.619	4.871	1772226066.744
340	400.000	0.003	400.002	0.359	2.461	1772226066.978
341	400.000	-0.041	399.997	0.756	1.078	1772226067.194
342	400.000	0.021	399.999	0.759	4.524	1772226067.446
343	400.000	0.030	399.998	0.722	1.853	1772226067.645
344	400.000	0.009	400.004	0.475	0.516	1772226067.909
345	400.000	-0.049	400.000	0.587	4.151	1772226068.155
346	400.000	-0.007	400.001	1.012	1.405	1772226068.376
347	400.000	-0.042	400.001	0.443	5.665	1772226068.559
348	400.000	0.011	400.003	0.767	4.148	1772226068.761
349	400.000	-0.013	399.998	0.876	1.439	1772226069.023
350	400.000	-0.006	400.002	0.529	5.381	1772226069.253
351	400.000	0.050	400.003	0.320	2.792	1772226069.538
352	400.000	0.017	399.997	0.951	1.042	1772226069.753
353	400.000	0.002	399.999	0.712	4.688	1772226069.931
354	400.000	-0.048	399.998	0.433	3.045	1772226070.145
355	400.000	0.022	399.997	1.098	1.319	1772226070.338
356	400.000	0.007	400.000	0.654	4.797	1772226070.590
357	400.000	-0.042	400.001	0.352	2.961	1772226070.823
358	400.000	0.026	400.002	0.813	1.009	1772226070.996
359	400.000	-0.066	399.998	0.689	4.860	1772226071.215
360	400.000	-0.026	400.000	0.360	2.556	1772226071.453
361	400.000	0.056	400.001	0.883	1.172	1772226071.648
362	400.000	-0.004	399.999	0.561	4.996	1772226071.828
363	400.000	0.042	399.996	0.320	3.505	1772226072.108
364	400.000	-0.017	400.001	0.772	0.918	1772226072.347
365	400.000	0.007	399.997	0.747	4.506	1772226072.571
366	400.000	0.070	400.001	0.509	1.907	1772226072.774
367	400.000	0.044	400.005	0.756	0.940	1772226073.031
368	400.000	-0.008	400.003	0.656	4.362	1772226073.249
369	400.000	0.001	399.999	0.772	1.889	1772226073.455
370	400.000	0.001	400.003	0.607	0.830	1772226073.644
371	400.000	-0.021	400.000	0.713	4.474	1772226073.905
372	400.000	-0.048	400.000	0.824	1.677	1772226074.127
373	400.000	0.037	400.001	0.457	0.513	1772226074.340
374	400.000	-0.031	400.005	0.672	4.283	1772226074.586
375	400.000	-0.080	400.000	0.887	1.585	1772226074.813
376	400.000	0.046	400.002	0.592	5.167	1772226075.079
377	400.000	0.095	400.000	0.259	3.533	1772226075.263
378	400.000	0.065	399.999	0.943	1.316	1772226075.494
379	400.000	0.046	399.997	0.545	5.366	1772226075.698
380	400.000	-0.011	399.998	0.350	3.345	1772226075.977
381	400.000	0.006	400.001	0.740	1.000	1772226076.208
382	400.000	-0.035	399.998	0.799	4.777	1772226076.375
383	400.000	-0.027	399.998	0.279	3.004	1772226076.573
384	400.000	0.032	399.998	0.843	1.176	1772226076.844
385	400.000	-0.017	400.001	0.683	4.509	1772226077.070
386	400.000	-0.055	400.001	0.390	2.009	1772226077.244
387	400.000	0.033	400.000	0.807	1.210	1772226077.445
388	400.000	-0.053	400.004	0.610	4.965	1772226077.635
389	400.000	-0.046	399.999	0.517	3.606	1772226077.795
390	400.000	-0.004	400.005	0.913	1.523	1772226078.021
391	400.000	0.041	400.000	0.422	6.188	1772226078.208
392	400.000	-0.013	400.000	0.635	4.020	1772226078.461
393	400.000	0.000	399.997	0.963	1.388	1772226078.692
394	400.000	0.001	399.998	0.553	5.180	1772226078.895
395	400.000	0.040	400.003	0.326	3.402	1772226079.158
396	400.000	0.053	400.000	0.923	1.216	1772226079.360
397	400.000	0.032	400.001	0.586	4.954	1772226079.613
398	400.000	0.018	399.999	0.444	2.341	1772226079.814
399	400.000	0.016	400.002	0.713	0.846	1772226080.044
400	400.000	0.022	400.000	0.708	4.659	1772226080.286
401	400.000	-0.019	400.001	0.615	1.864	1772226080.519
402	400.000	-0.036	400.002	0.435	0.206	1772226080.739
403	400.000	0.031	400.005	0.739	4.190	1772226080.943
404	400.000	-0.013	400.003	0.987	1.484	1772226081.224
405	400.000	-0.004	400.000	0.535	5.427	1772226081.455
406	400.000	0.035	400.000	0.280	3.698	1772226081.702
407	400.000	0.035	400.003	1.069	1.361	1772226081.892
408	400.000	0.015	400.000	0.661	5.284	1772226082.086
409	400.000	0.024	400.000	0.481	3.733	1772226082.318
410	400.000	-0.003	399.997	1.153	1.414	1772226082.496
411	400.000	-0.069	399.997	0.502	5.708	1772226082.705
412	400.000	0.038	400.001	0.423	3.757	1772226082.946
413	400.000	-0.025	400.001	1.041	1.417	1772226083.155
414	400.000	0.040	400.001	0.587	5.204	1772226083.386
415	400.000	-0.018	399.997	0.350	2.953	1772226083.645
416	400.000	0.027	399.997	1.029	1.232	1772226083.842
417	400.000	0.032	399.999	0.652	4.804	1772226084.067
418	400.000	0.068	400.000	0.297	3.222	1772226084.261
419	400.000	-0.041	400.000	0.963	1.326	1772226084.445
420	400.000	-0.009	400.002	0.524	5.448	1772226084.614
421	400.000	0.030	399.999	0.550	3.857	1772226084.839
422	400.000	0.016	400.003	0.980	1.462	1772226085.082
423	400.000	-0.009	400.002	0.655	4.913	1772226085.314
424	400.000	0.030	399.999	0.422	3.108	1772226085.543
425	400.000	-0.037	400.002	0.926	1.188	1772226085.768
426	400.000	-0.005	399.997	0.652	4.686	1772226085.993
427	400.000	-0.001	400.001	0.401	2.435	1772226086.187
428	400.000	0.040	399.999	0.849	1.232	1772226086.393
429	400.000	0.116	400.000	0.655	4.871	1772226086.637
430	400.000	-0.001	400.000	0.315	2.058	1772226086.831
431	400.000	-0.011	400.005	0.673	1.044	1772226087.064
432	400.000	-0.005	400.001	0.748	4.567	1772226087.280
433	400.000	-0.033	400.001	0.397	2.095	1772226087.520
434	400.000	-0.006	400.000	0.601	0.791	1772226087.754
435	400.000	-0.018	399.999	0.708	4.287	1772226087.952
436	400.000	0.019	399.998	0.667	1.909	1772226088.199
437	400.000	0.019	399.999	0.443	0.613	1772226088.407
438	400.000	0.044	399.998	0.661	4.197	1772226088.629
439	400.000	-0.034	399.997	0.806	1.565	1772226088.907
440	400.000	0.089	400.001	0.511	5.347	1772226089.142
441	400.000	-0.019	399.998	0.550	3.643	1772226089.310
442	400.000	-0.046	400.003	0.832	1.537	1772226089.501
443	400.000	0.052	400.002	0.318	5.987	1772226089.707
444	400.000	0.004	400.002	0.582	3.933	1772226089.956
445	400.000	-0.035	400.002	0.889	1.503	1772226090.188
446	400.000	0.008	400.000	0.465	5.312	1772226090.388
447	400.000	-0.047	399.999	0.453	3.552	1772226090.651
448	400.000	0.036	400.002	0.916	1.295	1772226090.876
449	400.000	0.004	399.999	0.701	4.909	1772226091.062
450	400.000	-0.028	399.998	0.683	3.808	1772226091.241
451	400.000	-0.025	400.001	0.981	1.569	1772226091.457
452	400.000	0.048	399.998	0.509	5.372	1772226091.718
453	400.000	0.013	400.000	0.367	3.210	1772226091.957
454	400.000	-0.022	399.999	0.829	1.182	1772226092.199
455	400.000	-0.019	399.999	0.708	4.650	1772226092.385
456	400.000	0.004	400.000	0.334	3.318	1772226092.566
457	400.000	-0.017	400.004	0.978	1.334	1772226092.759
458	400.000	-0.010	399.998	0.496	5.339	1772226092.983
459	400.000	-0.021	400.001	0.572	3.814	1772226093.163
460	400.000	0.041	399.998	0.877	1.561	1772226093.367
461	400.000	0.049	400.001	0.345	5.430	1772226093.631
462	400.000	0.027	399.998	0.394	3.381	1772226093.858
463	400.000	0.057	400.001	0.962	1.357	1772226094.034
464	400.000	-0.046	400.001	0.365	5.783	1772226094.229
465	400.000	0.032	400.002	0.702	4.001	1772226094.398
466	400.000	-0.024	400.000	0.687	1.757	1772226094.618
467	400.000	0.025	399.999	0.327	0.117	1772226094.886
468	400.000	-0.082	400.002	0.538	3.728	1772226095.094
469	400.000	0.002	400.002	0.867	1.502	1772226095.271
470	400.000	-0.032	400.000	0.378	0.350	1772226095.478
471	400.000	0.032	400.000	0.719	4.189	1772226095.676
472	400.000	0.022	400.000	0.470	1.763	1772226095.865
473	400.000	-0.016	399.998	0.671	0.957	1772226096.058
474	400.000	-0.021	400.003	0.597	4.641	1772226096.249
475	400.000	-0.007	400.001	0.448	2.207	1772226096.480
476	400.000	0.023	400.001	0.785	1.019	1772226096.687
477	400.000	0.055	399.998	0.681	4.474	1772226096.931
478	400.000	0.020	400.000	0.641	1.668	1772226097.184
479	400.000	0.038	400.001	0.398	0.003	1772226097.427
480	400.000	-0.034	399.999	0.547	4.260	1772226097.623
481	400.000	-0.066	399.998	0.734	1.776	1772226097.866
482	400.000	-0.018	400.001	0.499	6.227	1772226098.034
483	400.000	0.013	399.998	0.607	4.416	1772226098.230
484	400.000	0.008	400.001	0.505	2.223	1772226098.414
485	400.000	0.053	399.999	0.823	1.162	1772226098.597
486	400.000	0.024	400.000	0.697	4.762	1772226098.816
487	400.000	-0.027	400.005	0.354	2.734	1772226099.045
488	400.000	0.062	399.999	0.776	1.155	1772226099.248
489	400.000	-0.008	399.997	0.643	4.695	1772226099.486
490	400.000	0.036	400.002	0.446	2.241	1772226099.706
491	400.000	-0.017	400.000	0.543	0.784	1772226099.961
492	400.000	0.026	400.002	0.600	4.178	1772226100.179
493	400.000	-0.011	400.004	0.755	1.595	1772226100.457
494	400.000	0.018	400.003	0.465	5.231	1772226100.690
495	400.000	-0.037	400.003	0.346	3.340	1772226100.957
496	400.000	0.005	399.999	0.717	1.107	1772226101.188
497	400.000	-0.038	399.999	0.651	5.047	1772226101.364
498	400.000	-0.017	400.000	0.280	3.581	1772226101.555
499	400.000	-0.027	399.999	0.974	1.355	1772226101.741
500	400.000	0.033	399.998	0.535	5.100	1772226102.018
501	400.000	0.066	399.997	0.332	2.765	1772226102.253
502	400.000	-0.021	400.000	0.902	1.324	1772226102.432
503	400.000	0.076	399.998	0.515	5.267	1772226102.601
504	400.000	0.026	399.996	0.597	3.945	1772226102.824
505	400.000	0.008	400.000	0.925	1.478	1772226103.014
506	400.000	-0.033	399.998	0.392	5.837	1772226103.203
507	400.000	0.002	399.999	0.635	4.127	1772226103.394
508	400.000	0.031	400.004	0.522	2.121	1772226103.595
509	400.000	-0.027	400.001	0.616	0.852	1772226103.826
510	400.000	0.034	399.998	0.612	4.279	1772226104.083
511	400.000	0.029	399.999	0.694	1.513	1772226104.267
512	400.000	0.004	399.999	0.551	0.697	1772226104.463
513	400.000	-0.011	399.999	0.576	4.384	1772226104.698
514	400.000	-0.013	400.001	0.656	1.687	1772226104.868
515	400.000	-0.028	400.001	0.631	0.988	1772226105.093
516	400.000	0.004	399.999	0.661	4.455	1772226105.346
517	400.000	0.017	400.000	0.793	1.564	1772226105.570
518	400.000	0.008	399.999	0.395	0.171	1772226105.774
519	400.000	-0.003	399.998	0.659	4.246	1772226106.016
520	400.000	-0.022	399.999	0.764	1.594	1772226106.201
521	400.000	-0.000	399.998	0.368	0.477	1772226106.402
522	400.000	0.004	400.001	0.582	4.154	1772226106.660
523	400.000	0.043	400.000	0.761	1.441	1772226106.889
524	400.000	-0.034	399.998	0.332	6.082	1772226107.094
525	400.000	-0.003	399.999	0.534	3.912	1772226107.315
526	400.000	-0.051	400.000	0.878	1.340	1772226107.546
527	400.000	0.001	400.004	0.372	6.040	1772226107.727
528	400.000	0.055	399.997	0.689	4.220	1772226107.951
529	400.000	0.053	399.999	0.946	1.523	1772226108.159
530	400.000	-0.019	400.002	0.402	5.905	1772226108.391
531	400.000	0.017	400.000	0.470	4.184	1772226108.594
532	400.000	0.017	399.999	0.888	1.456	1772226108.844
533	400.000	-0.008	399.998	0.526	5.240	1772226109.073
534	400.000	0.015	400.001	0.377	3.067	1772226109.347
535	400.000	-0.067	400.002	0.809	1.124	1772226109.581
536	400.000	0.024	400.000	0.586	4.397	1772226109.824
537	400.000	-0.059	399.997	0.561	1.683	1772226110.040
538	400.000	0.070	399.998	0.486	0.739	1772226110.263
539	400.000	0.014	399.999	0.663	4.549	1772226110.433
540	400.000	-0.006	399.999	0.413	1.942	1772226110.626
541	400.000	0.008	400.003	0.984	1.241	1772226110.829
542	400.000	-0.009	400.001	0.683	4.771	1772226111.064
543	400.000	-0.052	399.999	0.332	2.549	1772226111.275
544	400.000	-0.017	400.000	0.822	1.111	1772226111.497
545	400.000	0.058	400.000	0.705	4.653	1772226111.669
546	400.000	-0.007	400.001	0.356	3.141	1772226111.919
547	400.000	-0.014	399.998	0.904	1.146	1772226112.146
548	400.000	-0.008	400.001	0.699	4.662	1772226112.388
549	400.000	0.024	399.999	0.680	1.664	1772226112.647
550	400.000	-0.069	399.998	0.353	5.871	1772226112.887
551	400.000	0.030	400.000	0.646	3.911	1772226113.062
552	400.000	0.028	400.002	0.646	1.878	1772226113.249
553	400.000	-0.030	400.001	0.666	0.978	1772226113.428
554	400.000	0.007	400.001	0.727	4.696	1772226113.646
555	400.000	-0.072	399.999	0.458	2.077	1772226113.904
556	400.000	0.000	400.001	0.485	0.487	1772226114.122
557	400.000	0.024	399.996	0.900	4.332	1772226114.311
558	400.000	0.022	400.000	0.558	2.225	1772226114.526
559	400.000	0.016	400.001	0.664	0.864	1772226114.757
560	400.000	0.019	400.001	0.667	4.278	1772226114.962
561	400.000	-0.056	400.003	0.612	1.837	1772226115.213
562	400.000	-0.068	400.002	0.397	6.051	1772226115.463
563	400.000	0.008	399.998	0.480	3.822	1772226115.686
564	400.000	-0.023	399.998	1.011	1.518	1772226115.882
565	400.000	0.008	399.997	0.481	5.546	1772226116.127
566	400.000	-0.027	400.002	0.337	3.542	1772226116.351
567	400.000	-0.089	400.000	0.912	1.380	1772226116.577
568	400.000	0.038	399.999	0.702	4.827	1772226116.841
569	400.000	0.024	400.001	0.503	2.041	1772226117.069
570	400.000	0.013	400.002	0.665	1.041	1772226117.270
571	400.000	0.025	400.003	0.684	4.680	1772226117.524
572	400.000	0.008	400.001	0.534	1.787	1772226117.712
573	400.000	-0.037	399.999	0.614	0.809	1772226117.945
574	400.000	0.022	400.003	0.726	4.569	1772226118.127
575	400.000	0.050	400.000	0.376	2.146	1772226118.324
576	400.000	0.014	399.999	0.815	1.110	1772226118.579
577	400.000	0.080	400.000	0.798	4.621	1772226118.774
578	400.000	-0.058	400.001	0.486	1.878	1772226119.000
579	400.000	0.032	399.998	0.744	1.081	1772226119.200
580	400.000	-0.032	400.001	0.709	4.538	1772226119.416
581	400.000	-0.011	399.999	0.583	1.953	1772226119.638
582	400.000	0.034	400.002	0.776	1.115	1772226119.839
583	400.000	-0.010	400.005	0.729	4.392	1772226120.077
584	400.000	-0.021	400.002	0.648	1.786	1772226120.339
585	400.000	-0.032	400.005	0.487	0.733	1772226120.533
586	400.000	0.031	400.004	0.640	4.129	1772226120.758
587	400.000	0.006	400.000	0.689	1.542	1772226120.934
588	400.000	-0.019	399.999	0.531	0.866	1772226121.133
589	400.000	0.059	399.998	0.696	4.491	1772226121.389
590	400.000	0.090	399.998	0.627	1.560	1772226121.583
591	400.000	-0.090	399.998	0.574	1.038	1772226121.764
592	400.000	-0.017	400.001	0.753	4.499	1772226121.956
593	400.000	0.025	399.998	0.432	2.669	1772226122.141
594	400.000	-0.016	399.999	0.861	1.187	1772226122.397
595	400.000	0.019	400.003	0.674	4.506	1772226122.654
596	400.000	-0.039	400.002	0.736	1.590	1772226122.877
597	400.000	0.020	400.003	0.430	0.890	1772226123.065
598	400.000	-0.009	400.001	0.692	4.349	1772226123.240
599	400.000	-0.003	400.003	0.453	2.177	1772226123.458
600	400.000	0.075	400.002	0.814	1.287	1772226123.654
601	400.000	-0.037	399.999	0.693	4.945	1772226123.883
602	400.000	-0.023	400.000	0.391	2.299	1772226124.086
603	400.000	-0.019	400.000	0.754	1.386	1772226124.258
604	400.000	0.027	399.996	0.592	5.064	1772226124.454
605	400.000	0.050	400.000	0.246	2.860	1772226124.729
606	400.000	-0.037	400.003	0.633	1.055	1772226124.959
607	400.000	0.075	400.001	0.662	5.007	1772226125.135
608	400.000	-0.026	399.997	0.256	2.917	1772226125.330
609	400.000	-0.046	400.001	0.708	1.243	1772226125.600
610	400.000	-0.021	400.001	0.745	4.620	1772226125.823
611	400.000	0.052	400.001	0.434	1.913	1772226126.000
612	400.000	0.040	400.000	0.624	0.949	1772226126.285
613	400.000	-0.044	400.001	0.660	4.318	1772226126.510
614	400.000	-0.032	400.001	0.620	1.521	1772226126.706
615	400.000	-0.023	399.995	0.592	0.871	1772226126.880
616	400.000	0.012	400.001	0.692	4.633	1772226127.085
617	400.000	-0.019	400.005	0.510	1.758	1772226127.342
618	400.000	0.037	400.002	0.367	0.479	1772226127.572
619	400.000	-0.025	399.997	0.764	4.470	1772226127.749
620	400.000	-0.022	400.000	0.535	1.855	1772226127.955
621	400.000	0.020	400.001	0.689	1.057	1772226128.135
622	400.000	0.109	400.005	0.631	4.564	1772226128.399
623	400.000	0.021	399.997	0.558	1.908	1772226128.628
624	400.000	-0.064	400.001	0.450	1.017	1772226128.832
625	400.000	-0.018	399.998	0.630	4.421	1772226129.073
626	400.000	0.003	400.001	0.767	1.649	1772226129.268
627	400.000	0.007	400.002	0.496	0.868	1772226129.463
628	400.000	-0.012	399.998	0.553	4.754	1772226129.698
629	400.000	0.014	399.999	0.723	1.621	1772226129.960
630	400.000	-0.043	400.002	0.368	6.164	1772226130.197
631	400.000	0.056	400.002	0.390	3.788	1772226130.379
632	400.000	0.039	399.999	0.877	1.557	1772226130.599
633	400.000	0.039	400.005	0.426	0.025	1772226130.822
634	400.000	0.018	399.998	0.591	4.169	1772226131.005
635	400.000	0.060	400.001	0.660	1.617	1772226131.209
636	400.000	0.010	399.995	0.302	0.528	1772226131.433
637	400.000	0.007	400.002	0.683	4.320	1772226131.616
638	400.000	0.018	399.999	0.487	1.595	1772226131.834
639	400.000	-0.039	400.003	0.408	0.847	1772226132.088
640	400.000	-0.021	400.000	0.550	4.037	1772226132.317
641	400.000	-0.116	400.006	0.884	1.286	1772226132.574
642	400.000	-0.022	400.003	0.429	5.360	1772226132.774
643	400.000	-0.015	400.000	0.359	3.549	1772226133.006
644	400.000	0.041	400.000	0.906	1.455	1772226133.196
645	400.000	0.029	400.001	0.496	5.303	1772226133.454
646	400.000	-0.028	400.003	0.372	2.818	1772226133.692
647	400.000	-0.035	399.995	0.754	1.325	1772226133.884
648	400.000	0.028	400.001	0.597	5.170	1772226134.067
649	400.000	-0.006	399.999	0.596	3.591	1772226134.276
650	400.000	0.036	400.001	0.919	1.355	1772226134.487
651	400.000	0.001	400.000	0.565	5.298	1772226134.735
652	400.000	0.016	399.999	0.339	2.770	1772226134.993
653	400.000	-0.016	400.003	0.616	1.222	1772226135.220
654	400.000	0.003	399.999	0.720	4.804	1772226135.427
655	400.000	-0.031	400.001	0.405	2.252	1772226135.685
656	400.000	0.057	400.002	0.447	0.715	1772226135.905
657	400.000	-0.025	400.004	0.684	4.500	1772226136.105
658	400.000	0.005	400.004	0.545	1.721	1772226136.331
659	400.000	-0.018	400.002	0.442	0.838	1772226136.518
660	400.000	0.021	400.004	0.646	4.606	1772226136.736
661	400.000	0.007	400.004	0.519	1.669	1772226136.972
662	400.000	-0.038	399.999	0.545	1.113	1772226137.156
663	400.000	0.013	399.996	0.668	4.524	1772226137.352
664	400.000	-0.030	399.999	0.343	2.273	1772226137.596
665	400.000	-0.039	400.003	0.696	1.229	1772226137.775
666	400.000	0.017	399.999	0.770	4.743	1772226137.994
667	400.000	-0.030	399.999	0.416	2.271	1772226138.220
668	400.000	0.046	399.997	0.816	1.127	1772226138.392
669	400.000	-0.007	400.000	0.613	4.913	1772226138.591
670	400.000	0.027	399.998	0.313	3.458	1772226138.768
671	400.000	0.059	400.000	0.911	1.357	1772226138.962
672	400.000	0.009	400.000	0.337	5.606	1772226139.214
673	400.000	-0.017	400.002	0.473	4.012	1772226139.412
674	400.000	-0.011	399.999	0.853	1.223	1772226139.647
675	400.000	-0.029	400.001	0.565	5.035	1772226139.903
676	400.000	-0.010	399.998	0.388	3.403	1772226140.099
677	400.000	0.016	399.999	0.839	1.305	1772226140.301
678	400.000	0.006	400.000	0.413	5.069	1772226140.500
679	400.000	-0.007	400.001	0.492	3.797	1772226140.705
680	400.000	0.022	400.001	1.050	1.334	1772226140.889
681	400.000	-0.027	400.002	0.268	5.967	1772226141.109
682	400.000	0.031	399.998	0.402	3.836	1772226141.365
683	400.000	0.019	399.998	0.906	1.447	1772226141.600
684	400.000	-0.003	400.001	0.522	4.973	1772226141.841
685	400.000	-0.019	400.002	0.305	2.737	1772226142.038
686	400.000	0.036	399.999	0.869	1.242	1772226142.238
687	400.000	-0.012	400.002	0.438	5.411	1772226142.409
688	400.000	-0.062	399.999	0.673	3.774	1772226142.611
689	400.000	0.001	400.002	0.771	1.446	1772226142.810
690	400.000	0.055	399.996	0.263	5.835	1772226143.082
691	400.000	0.022	399.999	0.415	3.447	1772226143.305
692	400.000	0.015	399.999	0.904	1.178	1772226143.560
693	400.000	-0.067	399.999	0.731	4.663	1772226143.771
694	400.000	-0.011	400.000	0.366	2.353	1772226143.991
695	400.000	0.034	400.001	0.964	1.248	1772226144.175
696	400.000	-0.008	399.998	0.561	4.884	1772226144.452
697	400.000	0.007	400.000	0.458	1.649	1772226144.685
698	400.000	-0.015	399.998	0.347	0.742	1772226144.948
699	400.000	0.020	399.998	0.490	3.997	1772226145.180
700	400.000	-0.009	400.000	0.790	1.481	1772226145.354
701	400.000	-0.038	399.999	0.523	0.641	1772226145.564
702	400.000	0.024	400.003	0.726	4.562	1772226145.737
703	400.000	-0.013	400.001	0.373	1.950	1772226145.940
704	400.000	0.025	400.000	0.587	1.113	1772226146.189
705	400.000	0.017	399.999	0.733	4.737	1772226146.387
706	400.000	0.056	399.997	0.528	1.553	1772226146.616
707	400.000	-0.060	400.000	0.374	1.001	1772226146.837
708	400.000	0.043	399.995	0.656	4.320	1772226147.067
709	400.000	0.035	400.000	0.788	1.440	1772226147.298
710	400.000	0.038	400.001	0.230	0.310	1772226147.501
711	400.000	-0.028	400.000	0.572	4.242	1772226147.756
712	400.000	0.026	400.001	0.906	1.386	1772226147.986
713	400.000	-0.023	400.003	0.452	5.543	1772226148.175
714	400.000	-0.009	400.000	0.549	4.201	1772226148.346
715	400.000	-0.019	400.001	0.791	1.488	1772226148.563
716	400.000	-0.003	400.003	0.399	0.574	1772226148.819
717	400.000	-0.017	399.996	0.478	3.961	1772226149.045
718	400.000	0.059	399.999	1.028	1.341	1772226149.242
719	400.000	0.019	400.002	0.293	5.718	1772226149.504
720	400.000	0.053	400.003	0.225	3.131	1772226149.729
721	400.000	-0.028	400.002	0.891	1.187	1772226149.916
722	400.000	0.075	400.000	0.364	5.554	1772226150.149
723	400.000	0.047	399.997	0.248	3.102	1772226150.362
724	400.000	-0.002	400.002	1.085	1.343	1772226150.560
725	400.000	0.084	400.000	0.389	5.856	1772226150.762
726	400.000	0.001	400.001	0.413	3.908	1772226151.002
727	400.000	-0.011	399.998	1.011	1.407	1772226151.202
728	400.000	-0.031	400.002	0.484	5.305	1772226151.453
729	400.000	0.030	399.999	0.349	2.879	1772226151.676
730	400.000	-0.032	400.001	0.911	1.189	1772226151.896
731	400.000	-0.007	400.001	0.585	4.882	1772226152.138
732	400.000	0.074	399.996	0.438	2.078	1772226152.343
733	400.000	0.024	400.001	0.881	1.064	1772226152.547
734	400.000	-0.057	400.002	0.648	4.918	1772226152.759
735	400.000	0.042	399.997	0.387	2.316	1772226153.016
736	400.000	0.034	400.001	0.632	1.019	1772226153.239
737	400.000	-0.010	400.000	0.719	4.738	1772226153.459
738	400.000	0.011	400.000	0.608	1.793	1772226153.703
739	400.000	-0.051	399.996	0.439	0.582	1772226153.918
740	400.000	-0.030	400.001	0.779	4.547	1772226154.119
741	400.000	0.034	400.000	0.827	1.541	1772226154.378
742	400.000	-0.056	399.997	0.183	0.856	1772226154.557
743	400.000	0.019	399.997	0.669	4.630	1772226154.749
744	400.000	0.024	399.998	0.455	1.890	1772226154.924
745	400.000	0.021	399.998	0.804	1.181	1772226155.117
746	400.000	-0.021	400.002	0.409	5.395	1772226155.313
747	400.000	-0.003	399.998	0.298	3.048	1772226155.570
748	400.000	-0.022	400.000	0.552	1.150	1772226155.815
749	400.000	-0.013	400.001	0.654	4.485	1772226156.060
750	400.000	0.039	399.998	0.752	1.541	1772226156.251
751	400.000	-0.047	400.003	0.482	1.150	1772226156.444
752	400.000	0.049	399.998	0.679	4.590	1772226156.690
753	400.000	0.038	400.000	0.466	1.713	1772226156.862
754	400.000	-0.055	400.000	0.645	1.106	1772226157.065
755	400.000	0.035	400.000	0.636	4.952	1772226157.249
756	400.000	-0.025	400.001	0.270	2.546	1772226157.505
757	400.000	-0.005	399.999	0.487	1.015	1772226157.757
758	400.000	0.048	400.001	0.711	4.679	1772226157.940
759	400.000	-0.003	400.000	0.582	1.787	1772226158.213
760	400.000	-0.024	400.001	0.263	0.552	1772226158.444
761	400.000	0.007	399.998	0.590	4.426	1772226158.616
762	400.000	-0.042	400.001	0.621	1.626	1772226158.792
763	400.000	0.087	400.000	0.510	1.031	1772226158.995
764	400.000	0.026	399.997	0.589	4.832	1772226159.169
765	400.000	0.112	400.002	0.433	3.061	1772226159.386
766	400.000	0.009	400.000	0.708	1.164	1772226159.626
767	400.000	0.017	400.000	0.720	4.724	1772226159.855
768	400.000	0.036	400.000	0.461	2.287	1772226160.073
769	400.000	-0.107	399.998	0.521	1.110	1772226160.313
770	400.000	0.022	400.001	0.679	4.791	1772226160.507
771	400.000	0.002	399.999	0.571	1.731	1772226160.734
772	400.000	0.040	400.001	0.450	1.293	1772226160.939
773	400.000	0.007	400.003	0.685	4.824	1772226161.132
774	400.000	-0.059	399.997	0.386	2.616	1772226161.320
775	400.000	-0.042	400.001	0.709	1.147	1772226161.565
776	400.000	-0.031	400.000	0.535	4.930	1772226161.736
777	400.000	0.068	400.002	0.321	3.178	1772226161.933
778	400.000	0.019	399.998	0.788	1.210	1772226162.200
779	400.000	0.068	399.995	0.692	4.834	1772226162.431
780	400.000	0.083	400.000	0.564	1.902	1772226162.645
781	400.000	-0.013	400.001	0.374	0.910	1772226162.916
782	400.000	-0.016	400.001	0.727	4.531	1772226163.103
783	400.000	-0.004	399.997	0.747	1.374	1772226163.342
784	400.000	0.015	399.999	0.295	6.156	1772226163.592
785	400.000	-0.015	400.002	0.496	3.961	1772226163.832
786	400.000	0.017	399.994	0.965	1.333	1772226164.057
787	400.000	0.018	399.999	0.518	4.890	1772226164.255
788	400.000	0.019	399.999	0.623	3.747	1772226164.471
789	400.000	-0.021	400.001	0.931	1.359	1772226164.704
790	400.000	0.079	400.002	0.461	5.124	1772226164.898
791	400.000	-0.057	399.999	0.463	4.057	1772226165.068
792	400.000	-0.057	399.999	0.941	1.236	1772226165.333
793	400.000	0.000	399.999	0.374	5.641	1772226165.530
794	400.000	0.090	399.999	0.431	3.821	1772226165.767
795	400.000	0.011	400.002	0.940	1.351	1772226165.979
796	400.000	0.030	399.999	0.445	5.141	1772226166.200
797	400.000	-0.035	399.998	0.451	3.916	1772226166.410
798	400.000	-0.021	400.002	0.878	1.247	1772226166.636
799	400.000	-0.021	399.999	0.428	5.229	1772226166.824
800	400.000	0.029	399.999	0.453	3.982	1772226167.040
801	400.000	0.011	400.005	0.963	1.254	1772226167.269
802	400.000	0.033	399.999	0.396	5.278	1772226167.461
803	400.000	0.015	399.996	0.427	3.924	1772226167.694
804	400.000	-0.054	400.001	0.942	1.274	1772226167.897
805	400.000	0.059	400.002	0.438	5.192	1772226168.149
806	400.000	0.036	400.000	0.317	2.586	1772226168.416
807	400.000	0.045	400.003	0.677	1.149	1772226168.637
808	400.000	0.004	400.001	0.726	4.902	1772226168.826
809	400.000	0.003	400.000	0.366	3.210	1772226169.021
810	400.000	0.005	400.000	0.911	1.174	1772226169.214
811	400.000	-0.008	400.000	0.529	5.057	1772226169.447
812	400.000	0.003	399.998	0.330	3.188	1772226169.625
813	400.000	0.017	399.999	1.111	1.283	1772226169.813
814	400.000	0.033	399.998	0.341	5.404	1772226170.049
815	400.000	0.006	399.998	0.355	3.499	1772226170.279
816	400.000	0.050	400.000	0.950	1.366	1772226170.452
817	400.000	0.007	400.000	0.337	5.934	1772226170.661
818	400.000	-0.023	400.002	0.489	3.904	1772226170.909
819	400.000	0.059	400.001	0.899	1.379	1772226171.101
820	400.000	-0.057	400.001	0.437	5.307	1772226171.312
821	400.000	-0.006	400.000	0.458	3.734	1772226171.540
822	400.000	0.025	399.997	0.862	1.360	1772226171.798
823	400.000	0.029	399.999	0.561	5.024	1772226171.993
824	400.000	-0.033	400.000	0.373	3.338	1772226172.217
825	400.000	0.011	399.999	0.931	1.235	1772226172.421
826	400.000	-0.001	400.003	0.493	5.157	1772226172.608
827	400.000	-0.004	400.004	0.333	3.404	1772226172.854
828	400.000	0.038	399.999	0.982	1.182	1772226173.051
829	400.000	0.011	400.003	0.501	4.922	1772226173.282
830	400.000	0.043	400.002	0.325	2.852	1772226173.504
831	400.000	-0.071	400.000	0.819	1.268	1772226173.739
832	400.000	-0.044	399.999	0.650	4.947	1772226173.944
833	400.000	0.013	400.000	0.316	2.890	1772226174.194
834	400.000	-0.053	400.000	0.756	1.287	1772226174.374
835	400.000	0.062	400.001	0.528	4.973	1772226174.561
836	400.000	-0.012	400.002	0.383	3.746	1772226174.772
837	400.000	0.007	399.999	0.983	1.238	1772226174.996
838	400.000	0.028	399.998	0.480	5.262	1772226175.185
839	400.000	0.005	399.996	0.379	3.380	1772226175.456
840	400.000	0.031	400.003	0.887	1.159	1772226175.704
841	400.000	-0.011	400.001	0.686	4.653	1772226175.966
842	400.000	-0.026	399.999	0.765	1.465	1772226176.201
843	400.000	0.038	399.999	0.321	0.305	1772226176.418
844	400.000	-0.044	399.999	0.703	4.298	1772226176.632
845	400.000	-0.030	400.002	0.940	1.379	1772226176.897
846	400.000	0.001	400.001	0.322	5.552	1772226177.122
847	400.000	-0.003	399.996	0.428	3.446	1772226177.372
848	400.000	-0.009	399.998	1.055	1.239	1772226177.562
849	400.000	-0.086	399.997	0.556	5.136	1772226177.758
850	400.000	0.011	399.999	0.455	3.448	1772226178.010
851	400.000	0.077	400.000	1.021	1.226	1772226178.262
852	400.000	-0.005	399.996	0.719	4.743	1772226178.494
853	400.000	0.006	400.001	0.411	2.433	1772226178.671
854	400.000	0.007	400.004	1.062	1.208	1772226178.859
855	400.000	0.042	399.998	0.565	5.006	1772226179.051
856	400.000	0.002	400.000	0.357	3.887	1772226179.218
857	400.000	-0.022	400.003	0.943	1.539	1772226179.449
858	400.000	0.006	400.001	0.326	5.456	1772226179.693
859	400.000	-0.079	399.999	0.402	3.401	1772226179.943
860	400.000	-0.002	400.000	1.010	1.277	1772226180.119
861	400.000	-0.005	400.001	0.300	5.583	1772226180.321
862	400.000	0.061	400.001	0.718	4.098	1772226180.512
863	400.000	0.038	399.997	0.971	1.462	1772226180.728
864	400.000	-0.052	400.000	0.266	5.737	1772226180.926
865	400.000	-0.035	400.001	0.729	4.425	1772226181.113
866	400.000	-0.048	400.002	0.708	1.587	1772226181.309
867	400.000	0.060	400.000	0.345	0.718	1772226181.558
868	400.000	-0.020	400.002	0.678	4.306	1772226181.750
869	400.000	-0.065	399.998	0.682	1.835	1772226181.952
870	400.000	-0.066	400.002	0.398	0.738	1772226182.175
871	400.000	0.055	400.002	0.903	4.495	1772226182.352
872	400.000	0.032	399.998	0.484	2.232	1772226182.543
873	400.000	0.080	400.002	0.833	1.203	1772226182.751
874	400.000	0.010	399.999	0.491	5.055	1772226182.968
875	400.000	0.034	400.000	0.423	2.306	1772226183.206
876	400.000	-0.048	399.997	0.946	1.106	1772226183.392
877	400.000	-0.013	400.000	0.575	4.732	1772226183.641
878	400.000	0.024	400.002	0.494	2.381	1772226183.844
879	400.000	0.012	399.997	0.717	1.074	1772226184.085
880	400.000	0.005	399.999	0.648	4.494	1772226184.368
881	400.000	-0.081	399.999	0.977	1.477	1772226184.579
882	400.000	0.012	400.001	0.221	0.225	1772226184.780
883	400.000	-0.025	399.996	0.631	4.140	1772226185.035
884	400.000	0.055	400.001	0.969	1.341	1772226185.264
885	400.000	-0.055	400.000	0.420	5.365	1772226185.462
886	400.000	-0.013	400.000	0.683	4.034	1772226185.671
887	400.000	0.027	400.001	0.968	1.450	1772226185.897
888	400.000	-0.005	400.003	0.435	5.053	1772226186.143
889	400.000	-0.039	399.996	0.509	3.442	1772226186.338
890	400.000	0.061	400.001	1.040	1.390	1772226186.518
891	400.000	-0.008	399.998	0.363	0.429	1772226186.686
892	400.000	0.006	400.000	0.807	4.596	1772226186.890
893	400.000	-0.013	399.999	0.573	1.945	1772226187.081
894	400.000	-0.007	400.003	0.918	1.053	1772226187.276
895	400.000	0.020	399.997	0.606	4.731	1772226187.519
896	400.000	0.011	399.999	0.630	1.597	1772226187.749
897	400.000	-0.013	400.002	0.629	1.083	1772226187.972
898	400.000	0.042	400.000	0.629	4.541	1772226188.192
899	400.000	0.007	400.003	0.608	1.787	1772226188.388
900	400.000	-0.025	400.003	0.808	1.088	1772226188.578
901	400.000	0.077	400.000	0.672	4.833	1772226188.776
902	400.000	-0.007	399.999	0.414	2.068	1772226189.044
903	400.000	-0.002	399.999	0.497	0.854	1772226189.259
904	400.000	-0.007	399.999	0.713	4.524	1772226189.470
905	400.000	-0.021	400.004	0.670	1.937	1772226189.666
906	400.000	-0.024	399.999	0.367	0.779	1772226189.932
907	400.000	-0.006	400.000	0.709	4.356	1772226190.150
908	400.000	0.006	399.994	0.866	1.542	1772226190.353
909	400.000	-0.007	400.001	0.261	0.163	1772226190.627
910	400.000	-0.026	400.000	0.672	4.040	1772226190.851
911	400.000	-0.023	399.999	0.979	1.358	1772226191.076
912	400.000	0.043	400.002	0.381	5.329	1772226191.301
913	400.000	-0.002	400.001	0.412	3.456	1772226191.541
914	400.000	0.015	399.998	1.049	1.328	1772226191.738
915	400.000	-0.010	400.002	0.403	5.254	1772226191.918
916	400.000	-0.005	400.003	0.570	4.061	1772226192.117
917	400.000	-0.014	399.999	1.003	1.300	1772226192.361
918	400.000	0.016	399.998	0.573	5.070	1772226192.645
919	400.000	-0.015	400.000	0.432	2.188	1772226192.855
920	400.000	0.013	400.001	0.683	1.177	1772226193.124
921	400.000	-0.066	399.998	0.702	4.472	1772226193.353
922	400.000	0.000	400.001	0.812	1.514	1772226193.621
923	400.000	-0.057	400.002	0.333	5.847	1772226193.854
924	400.000	0.005	400.005	0.626	3.996	1772226194.023
925	400.000	0.042	400.002	0.841	1.629	1772226194.229
926	400.000	0.008	400.000	0.301	0.662	1772226194.492
927	400.000	0.024	399.999	0.514	3.769	1772226194.717
928	400.000	-0.046	400.001	1.047	1.358	1772226194.914
929	400.000	0.015	399.999	0.286	0.140	1772226195.094
930	400.000	-0.035	400.001	0.560	4.038	1772226195.370
931	400.000	0.014	400.001	1.006	1.238	1772226195.596
932	400.000	0.021	399.999	0.526	5.360	1772226195.786
933	400.000	0.004	400.004	0.639	4.023	1772226195.967
934	400.000	0.033	399.996	0.861	1.674	1772226196.163
935	400.000	-0.003	399.997	0.241	6.023	1772226196.415
936	400.000	-0.027	399.999	0.518	4.094	1772226196.621
937	400.000	0.028	399.999	1.049	1.434	1772226196.811
938	400.000	-0.002	400.001	0.306	0.533	1772226197.001
939	400.000	-0.045	400.004	0.776	4.449	1772226197.175
940	400.000	0.008	399.999	0.472	2.015	1772226197.359
941	400.000	0.077	400.003	0.926	1.087	1772226197.578
942	400.000	0.020	399.999	0.701	4.723	1772226197.839
943	400.000	-0.068	400.003	0.671	1.635	1772226198.071
944	400.000	-0.020	400.001	0.616	0.930	1772226198.261
945	400.000	-0.022	400.002	0.749	4.596	1772226198.489
946	400.000	-0.095	399.998	0.816	1.626	1772226198.730
947	400.000	-0.016	400.002	0.267	0.580	1772226198.953
948	400.000	0.037	400.001	0.711	4.500	1772226199.178
949	400.000	0.033	399.999	0.956	1.329	1772226199.422
950	400.000	0.046	399.999	0.326	5.067	1772226199.648
951	400.000	-0.005	400.001	0.627	4.124	1772226199.823
952	400.000	-0.021	399.999	0.940	1.485	1772226200.044
953	400.000	0.030	400.000	0.273	6.012	1772226200.293
954	400.000	0.018	400.000	0.500	3.859	1772226200.512
955	400.000	0.058	400.004	1.059	1.428	1772226200.726
956	400.000	-0.003	399.999	0.436	5.082	1772226200.972
957	400.000	0.034	400.000	0.395	3.374	1772226201.163
958	400.000	-0.000	399.999	1.010	1.304	1772226201.391
959	400.000	0.007	400.004	0.502	5.029	1772226201.607
960	400.000	-0.061	400.000	0.331	3.017	1772226201.857
961	400.000	-0.010	400.000	0.950	1.169	1772226202.091
962	400.000	0.030	400.002	0.650	4.751	1772226202.345
963	400.000	-0.038	400.001	0.438	1.981	1772226202.539
964	400.000	0.029	399.997	0.452	0.898	1772226202.769
965	400.000	0.065	399.999	0.692	4.716	1772226202.979
966	400.000	0.034	400.002	0.669	1.703	1772226203.207
967	400.000	0.029	400.000	0.392	0.911	1772226203.423
968	400.000	0.016	400.003	0.657	4.467	1772226203.655
969	400.000	-0.052	400.001	0.789	1.564	1772226203.910
970	400.000	-0.033	400.004	0.290	5.544	1772226204.168
971	400.000	-0.033	400.003	0.323	3.534	1772226204.416
972	400.000	0.006	399.999	1.013	1.298	1772226204.610
973	400.000	0.010	399.998	0.642	4.889	1772226204.868
974	400.000	0.012	400.001	0.371	2.069	1772226205.074
975	400.000	-0.002	400.004	0.934	1.196	1772226205.300
976	400.000	-0.024	399.998	0.695	4.664	1772226205.510
977	400.000	0.012	400.000	0.428	2.171	1772226205.738
978	400.000	-0.013	400.002	0.560	1.060	1772226205.992
979	400.000	0.026	399.999	0.670	4.670	1772226206.178
980	400.000	-0.039	400.001	0.464	2.456	1772226206.375
981	400.000	0.000	400.000	0.648	1.070	1772226206.632
982	400.000	-0.019	400.000	0.625	4.590	1772226206.869
983	400.000	-0.007	399.997	0.883	1.417	1772226207.130
984	400.000	-0.043	400.000	0.204	5.346	1772226207.378
985	400.000	0.013	399.998	0.382	3.610	1772226207.619
986	400.000	0.020	400.002	0.949	1.365	1772226207.789
987	400.000	0.026	400.001	0.327	5.441	1772226207.989
988	400.000	-0.050	400.004	0.534	4.202	1772226208.163
989	400.000	-0.053	400.001	0.849	1.585	1772226208.359
990	400.000	0.004	400.001	0.598	1.047	1772226208.547
991	400.000	-0.045	399.999	0.746	4.622	1772226208.716
992	400.000	-0.008	399.999	0.365	2.481	1772226208.909
993	400.000	-0.014	399.998	0.897	1.305	1772226209.094
994	400.000	0.017	399.999	0.375	5.132	1772226209.297
995	400.000	-0.050	400.000	0.509	3.970	1772226209.503
996	400.000	0.046	400.002	0.956	1.253	1772226209.737
997	400.000	-0.018	399.999	0.382	5.288	1772226209.942
998	400.000	-0.033	399.999	0.494	3.861	1772226210.169
999	400.000	-0.061	399.998	1.017	1.342	1772226210.347
1000	400.000	-0.028	399.999	0.211	6.163	1772226210.546
1001	400.000	0.024	400.003	0.565	4.391	1772226210.743
1002	400.000	0.001	400.001	0.652	1.692	1772226210.925
1003	400.000	0.018	400.001	0.434	1.211	1772226211.139
1004	400.000	0.037	400.000	0.717	4.528	1772226211.381
1005	400.000	-0.049	400.001	0.815	1.488	1772226211.620
1006	400.000	-0.056	400.000	0.165	0.028	1772226211.873
1007	400.000	0.002	399.999	0.575	3.856	1772226212.122
1008	400.000	0.013	399.996	1.047	1.270	1772226212.349
1009	400.000	0.006	400.000	0.551	4.995	1772226212.549
1010	400.000	-0.044	399.998	0.332	3.314	1772226212.822
1011	400.000	0.017	399.998	0.802	1.207	1772226213.061
1012	400.000	-0.003	400.001	0.610	4.584	1772226213.302
1013	400.000	-0.052	399.997	0.702	1.477	1772226213.562
1014	400.000	0.009	399.997	0.253	0.334	1772226213.793
1015	400.000	0.045	400.001	0.509	4.452	1772226213.975
1016	400.000	0.014	399.999	0.874	1.424	1772226214.172
1017	400.000	-0.058	400.000	0.441	0.903	1772226214.380
1018	400.000	0.037	400.000	0.547	4.311	1772226214.625
1019	400.000	-0.027	400.003	0.991	1.400	1772226214.860
1020	400.000	0.002	400.002	0.120	6.226	1772226215.045
1021	400.000	-0.023	399.997	0.781	4.269	1772226215.226
1022	400.000	0.013	400.000	0.614	1.585	1772226215.421
1023	400.000	-0.032	400.001	0.845	1.336	1772226215.610
1024	400.000	0.087	400.000	0.622	4.613	1772226215.805
1025	400.000	0.031	400.001	0.445	3.399	1772226215.978
1026	400.000	0.028	400.003	1.145	1.352	1772226216.166
1027	400.000	-0.001	400.001	0.351	4.984	1772226216.363
1028	400.000	0.014	399.999	0.454	4.373	1772226216.558
1029	400.000	0.032	400.004	0.945	1.451	1772226216.794
1030	400.000	-0.038	399.999	0.259	0.014	1772226217.002
1031	400.000	-0.080	400.000	0.569	4.131	1772226217.223
1032	400.000	0.068	400.002	0.950	1.328	1772226217.409
1033	400.000	-0.007	400.001	0.245	0.806	1772226217.636
1034	400.000	0.011	400.000	0.587	4.251	1772226217.883
1035	400.000	0.023	400.005	1.023	1.309	1772226218.142
1036	400.000	0.039	399.997	0.594	4.797	1772226218.394
1037	400.000	-0.009	399.997	0.390	1.952	1772226218.653
1038	400.000	0.003	400.001	0.593	1.277	1772226218.857
1039	400.000	0.020	400.002	0.663	4.663	1772226219.063
1040	400.000	-0.022	400.001	0.364	2.123	1772226219.237
1041	400.000	-0.008	400.001	0.971	1.198	1772226219.459
1042	400.000	0.055	399.998	0.585	4.760	1772226219.715
1043	400.000	-0.005	399.997	0.480	1.770	1772226219.931
1044	400.000	-0.030	399.998	0.747	1.234	1772226220.106
1045	400.000	-0.018	400.001	0.515	4.948	1772226220.319
1046	400.000	0.008	400.000	0.360	2.354	1772226220.567
1047	400.000	0.019	399.999	0.638	1.338	1772226220.807
1048	400.000	0.045	400.002	0.661	4.615	1772226220.990
1049	400.000	-0.050	400.000	0.370	2.287	1772226221.206
1050	400.000	0.014	399.998	1.029	1.190	1772226221.398
1051	400.000	0.023	400.001	0.635	4.695	1772226221.658
1052	400.000	0.005	400.002	0.623	1.608	1772226221.905
1053	400.000	0.010	400.002	0.623	1.068	1772226222.094
1054	400.000	-0.006	400.004	0.609	4.548	1772226222.338
1055	400.000	-0.026	400.000	0.548	1.610	1772226222.540
1056	400.000	0.025	400.002	0.630	1.284	1772226222.754
1057	400.000	0.009	400.000	0.628	4.566	1772226222.948
1058	400.000	0.077	400.001	0.317	1.912	1772226223.165
1059	400.000	0.014	400.000	0.903	1.264	1772226223.378
1060	400.000	0.044	399.998	0.567	4.688	1772226223.580
1061	400.000	-0.007	399.998	0.405	1.957	1772226223.832
1062	400.000	-0.011	400.000	0.679	1.311	1772226224.035
1063	400.000	0.054	400.001	0.616	4.701	1772226224.265
1064	400.000	-0.001	400.000	0.398	1.730	1772226224.435
1065	400.000	-0.021	400.000	0.883	1.179	1772226224.637
1066	400.000	0.002	400.003	0.532	4.660	1772226224.889
1067	400.000	0.058	400.002	0.553	1.751	1772226225.090
1068	400.000	0.014	400.000	0.918	1.317	1772226225.282
1069	400.000	-0.012	399.999	0.489	5.083	1772226225.497
1070	400.000	-0.044	399.999	0.289	1.988	1772226225.761
1071	400.000	0.045	399.999	0.579	1.201	1772226225.985
1072	400.000	-0.029	400.001	0.583	4.554	1772226226.190
1073	400.000	-0.075	400.003	0.262	1.932	1772226226.364
1074	400.000	0.010	399.999	0.870	1.207	1772226226.539
1075	400.000	0.022	399.999	0.248	4.662	1772226226.726
1076	400.000	0.000	400.000	0.397	3.967	1772226226.938
1077	400.000	0.020	400.003	0.939	1.222	1772226227.174
1078	400.000	-0.060	400.000	0.357	4.709	1772226227.374
1079	400.000	-0.032	400.000	0.396	3.637	1772226227.614
1080	400.000	0.009	399.999	1.033	1.278	1772226227.797
1081	400.000	0.035	399.999	0.199	5.337	1772226227.988
1082	400.000	0.054	399.999	0.650	4.271	1772226228.186
1083	400.000	-0.012	399.999	0.943	1.277	1772226228.432
1084	400.000	0.024	399.999	0.239	5.357	1772226228.651
1085	400.000	0.012	400.001	0.395	3.902	1772226228.875
1086	400.000	0.020	400.002	0.878	1.237	1772226229.112
1087	400.000	-0.001	400.000	0.341	5.089	1772226229.302
1088	400.000	-0.054	400.000	0.470	4.034	1772226229.534
1089	400.000	0.003	400.000	1.071	1.289	1772226229.730
1090	400.000	0.035	400.002	0.303	4.786	1772226229.978
1091	400.000	0.006	399.997	0.184	3.348	1772226230.177
1092	400.000	-0.003	399.999	0.926	1.241	1772226230.360
1093	400.000	0.006	400.001	0.181	5.210	1772226230.597
1094	400.000	0.020	400.000	0.306	3.748	1772226230.789
1095	400.000	-0.032	399.996	1.098	1.299	1772226231.012
1096	400.000	-0.008	400.000	0.277	5.247	1772226231.279
1097	400.000	-0.000	399.999	0.254	2.683	1772226231.506
1098	400.000	-0.018	400.002	0.877	1.218	1772226231.703
1099	400.000	-0.028	399.998	0.298	5.204	1772226231.903
1100	400.000	0.013	400.001	0.124	3.313	1772226232.122
1101	400.000	-0.030	400.001	1.018	1.352	1772226232.310
1102	400.000	-0.021	399.997	0.431	4.743	1772226232.591
1103	400.000	0.004	400.000	0.424	2.139	1772226232.798
1104	400.000	0.023	399.999	0.803	1.184	1772226233.028
1105	400.000	-0.038	400.003	0.663	4.652	1772226233.270
1106	400.000	0.003	399.997	0.500	1.685	1772226233.464
1107	400.000	0.026	400.002	0.610	1.199	1772226233.702
1108	400.000	-0.004	399.998	0.610	4.700	1772226233.969
1109	400.000	-0.001	400.000	0.949	1.340	1772226234.189
1110	400.000	0.000	399.998	0.166	0.978	1772226234.388
1111	400.000	-0.000	399.997	0.567	4.325	1772226234.646
1112	400.000	0.014	399.999	0.918	1.235	1772226234.834
1113	400.000	0.032	399.999	0.233	5.279	1772226235.085
1114	400.000	-0.042	400.001	0.462	4.267	1772226235.290
1115	400.000	0.033	400.002	0.892	1.332	1772226235.524
1116	400.000	0.017	399.997	0.428	5.306	1772226235.797
1117	400.000	0.019	400.002	0.254	1.946	1772226236.006
1118	400.000	0.008	400.001	0.960	1.199	1772226236.221
1119	400.000	-0.006	400.001	0.577	4.771	1772226236.450
1120	400.000	-0.021	400.001	0.246	2.615	1772226236.657
1121	400.000	0.042	400.002	0.799	1.313	1772226236.888
1122	400.000	0.045	400.002	0.640	4.803	1772226237.086
1123	400.000	-0.001	400.001	0.234	2.178	1772226237.317
1124	400.000	0.047	400.000	0.830	1.168	1772226237.500
1125	400.000	-0.054	400.000	0.571	4.654	1772226237.712
1126	400.000	0.040	400.000	0.214	2.135	1772226237.963
1127	400.000	0.009	399.998	0.875	1.298	1772226238.155
1128	400.000	-0.009	400.000	0.575	4.698	1772226238.391
1129	400.000	-0.048	399.999	0.284	2.665	1772226238.597
1130	400.000	-0.010	400.000	0.749	1.244	1772226238.839
1131	400.000	0.046	400.000	0.571	4.592	1772226239.076
1132	400.000	0.017	400.000	0.675	1.408	1772226239.276
1133	400.000	-0.064	399.999	0.569	1.161	1772226239.520
1134	400.000	-0.015	399.998	0.622	4.496	1772226239.775
1135	400.000	-0.006	400.004	1.010	1.356	1772226239.992
1136	400.000	0.008	400.001	0.102	0.706	1772226240.201
1137	400.000	0.009	400.002	0.807	4.328	1772226240.391
1138	400.000	0.003	399.998	0.691	1.532	1772226240.592
1139	400.000	-0.019	399.999	0.415	0.929	1772226240.776
1140	400.000	-0.031	400.002	0.691	4.480	1772226241.006
1141	400.000	-0.011	400.001	0.644	1.574	1772226241.209
1142	400.000	0.035	400.002	0.460	0.946	1772226241.483
1143	400.000	0.000	400.000	0.579	4.238	1772226241.697
1144	400.000	-0.074	400.001	0.918	1.356	1772226241.901
1145	400.000	-0.042	399.997	0.177	0.746	1772226242.080
1146	400.000	0.044	400.003	0.723	4.500	1772226242.265
1147	400.000	-0.018	399.999	0.262	2.179	1772226242.438
1148	400.000	0.009	399.998	0.830	1.264	1772226242.637
1149	400.000	0.018	400.001	0.667	4.658	1772226242.908
1150	400.000	-0.004	399.998	0.510	1.859	1772226243.142
1151	400.000	-0.075	399.997	0.294	0.954	1772226243.396
1152	400.000	-0.037	399.999	0.779	4.509	1772226243.579
1153	400.000	0.005	399.997	0.755	1.516	1772226243.826
1154	400.000	-0.005	400.000	0.455	0.742	1772226244.005
1155	400.000	0.042	399.998	0.819	4.442	1772226244.206
1156	400.000	-0.058	400.002	0.433	1.788	1772226244.403
1157	400.000	-0.030	400.002	0.686	1.199	1772226244.644
1158	400.000	-0.013	400.000	0.664	4.487	1772226244.871
1159	400.000	0.032	399.999	0.730	1.362	1772226245.078
1160	400.000	0.011	400.000	0.248	0.744	1772226245.344
1161	400.000	0.017	399.999	0.515	4.296	1772226245.572
1162	400.000	-0.014	400.000	0.935	1.397	1772226245.769
1163	400.000	-0.004	399.999	0.171	5.935	1772226246.017
1164	400.000	-0.016	399.998	0.709	4.207	1772226246.218
1165	400.000	0.025	400.003	0.968	1.286	1772226246.454
1166	400.000	0.005	400.001	0.394	4.917	1772226246.731
1167	400.000	-0.044	399.999	0.148	2.843	1772226246.960
1168	400.000	0.041	400.004	0.937	1.211	1772226247.146
1169	400.000	-0.060	400.000	0.365	5.189	1772226247.343
1170	400.000	0.036	399.999	0.173	3.597	1772226247.584
1171	400.000	0.014	399.999	0.980	1.262	1772226247.765
1172	400.000	-0.015	399.999	0.245	4.779	1772226247.961
1173	400.000	0.050	399.999	0.462	4.089	1772226248.182
1174	400.000	-0.059	400.001	0.995	1.251	1772226248.397
1175	400.000	-0.005	400.000	0.332	4.981	1772226248.647
1176	400.000	0.047	400.001	0.143	2.304	1772226248.899
1177	400.000	0.013	400.004	0.782	1.169	1772226249.147
1178	400.000	-0.026	399.999	0.605	4.541	1772226249.387
1179	400.000	0.027	400.002	0.768	1.459	1772226249.587
1180	400.000	-0.037	400.000	0.440	0.887	1772226249.838
1181	400.000	-0.019	399.999	0.612	4.407	1772226250.088
1182	400.000	-0.037	399.998	0.989	1.274	1772226250.308
1183	400.000	-0.035	399.998	0.211	5.720	1772226250.508
1184	400.000	0.002	400.003	0.391	4.259	1772226250.779
1185	400.000	0.019	400.000	0.940	1.331	1772226250.944
1186	400.000	0.015	400.002	0.285	6.194	1772226251.136
1187	400.000	0.007	400.000	0.712	4.555	1772226251.349
1188	400.000	0.036	400.000	0.728	1.441	1772226251.600
1189	400.000	0.007	399.998	0.246	5.320	1772226251.831
1190	400.000	0.053	400.003	0.531	4.183	1772226252.034
1191	400.000	-0.052	399.998	0.962	1.276	1772226252.269
1192	400.000	-0.030	399.998	0.438	4.960	1772226252.538
1193	400.000	-0.006	400.000	0.179	2.199	1772226252.764
1194	400.000	-0.080	400.000	0.918	1.366	1772226252.940
1195	400.000	0.018	399.998	0.324	5.350	1772226253.137
1196	400.000	-0.046	399.999	0.329	3.986	1772226253.381
1197	400.000	0.013	400.001	1.056	1.214	1772226253.576
1198	400.000	-0.025	399.997	0.333	5.202	1772226253.785
1199	400.000	0.004	399.999	0.366	3.861	1772226254.036
1200	400.000	0.042	399.998	1.051	1.282	1772226254.270
1201	400.000	0.091	400.001	0.488	5.204	1772226254.447
1202	400.000	-0.026	399.999	0.499	4.121	1772226254.640
1203	400.000	0.010	399.998	0.953	1.323	1772226254.876
1204	400.000	-0.021	400.003	0.391	4.958	1772226255.076
1205	400.000	0.062	400.000	0.296	4.056	1772226255.322
1206	400.000	0.010	400.001	1.041	1.239	1772226255.520
1207	400.000	0.002	400.000	0.375	5.177	1772226255.750
1208	400.000	-0.050	399.999	0.264	3.932	1772226255.942
1209	400.000	-0.037	400.000	0.910	1.359	1772226256.206
1210	400.000	-0.023	399.998	0.483	4.932	1772226256.409
1211	400.000	0.015	399.997	0.150	3.319	1772226256.641
1212	400.000	0.010	399.999	0.857	1.472	1772226256.842
1213	400.000	-0.016	399.999	0.518	5.148	1772226257.092
1214	400.000	-0.006	399.999	0.264	2.306	1772226257.319
1215	400.000	-0.027	400.002	0.726	1.288	1772226257.528
1216	400.000	-0.010	400.001	0.570	4.812	1772226257.777
1217	400.000	-0.032	400.000	0.514	1.505	1772226258.010
1218	400.000	-0.016	400.000	0.591	1.221	1772226258.187
1219	400.000	-0.019	399.999	0.592	4.745	1772226258.384
1220	400.000	-0.027	400.000	0.168	2.827	1772226258.565
1221	400.000	0.005	399.998	0.912	1.262	1772226258.758
1222	400.000	-0.035	399.999	0.297	5.078	1772226258.982
1223	400.000	0.024	400.003	0.398	3.935	1772226259.221
1224	400.000	0.021	399.996	0.790	1.314	1772226259.461
1225	400.000	-0.007	400.002	0.593	4.739	1772226259.698
1226	400.000	-0.116	399.999	0.289	1.990	1772226259.890
1227	400.000	-0.020	399.995	0.819	1.228	1772226260.100
1228	400.000	0.036	399.998	0.541	4.741	1772226260.346
1229	400.000	-0.015	399.996	0.494	1.630	1772226260.589
1230	400.000	0.036	400.001	0.246	0.954	1772226260.825
1231	400.000	-0.045	400.001	0.734	4.420	1772226261.100
1232	400.000	0.015	400.002	0.919	1.296	1772226261.332
1233	400.000	0.041	400.000	0.317	5.123	1772226261.547
1234	400.000	0.054	400.000	0.401	4.015	1772226261.769
1235	400.000	0.065	400.002	0.995	1.244	1772226261.957
1236	400.000	-0.012	400.002	0.163	5.184	1772226262.150
1237	400.000	0.016	399.997	0.598	4.414	1772226262.378
1238	400.000	0.018	400.004	0.890	1.173	1772226262.586
1239	400.000	0.039	400.003	0.153	5.369	1772226262.835
1240	400.000	0.022	400.003	0.522	4.127	1772226263.033
1241	400.000	-0.016	399.997	0.950	1.311	1772226263.252
1242	400.000	0.001	400.001	0.143	5.937	1772226263.454
1243	400.000	-0.076	400.000	0.485	4.246	1772226263.721
1244	400.000	-0.030	400.000	0.879	1.307	1772226263.904
1245	400.000	0.018	400.001	0.306	5.274	1772226264.115
1246	400.000	-0.021	399.997	0.339	4.162	1772226264.351
1247	400.000	-0.010	399.998	0.933	1.235	1772226264.534
1248	400.000	0.020	399.998	0.372	4.856	1772226264.794
1249	400.000	0.062	400.000	0.178	3.483	1772226265.045
1250	400.000	0.019	400.002	0.706	1.234	1772226265.283
1251	400.000	0.011	399.997	0.488	4.623	1772226265.469
1252	400.000	-0.042	400.000	0.167	2.444	1772226265.679
1253	400.000	-0.013	399.997	0.781	1.183	1772226265.930
1254	400.000	0.004	400.000	0.575	4.655	1772226266.166
1255	400.000	-0.029	399.999	0.824	1.298	1772226266.393
1256	400.000	0.013	400.002	0.404	1.028	1772226266.612
1257	400.000	-0.021	400.001	0.606	4.535	1772226266.854
1258	400.000	-0.003	399.999	0.752	1.355	1772226267.047
1259	400.000	-0.026	400.001	0.128	5.198	1772226267.270
1260	400.000	0.016	399.999	0.601	4.396	1772226267.537
1261	400.000	-0.060	400.001	0.908	1.265	1772226267.786
1262	400.000	-0.008	400.002	0.529	4.939	1772226268.044
1263	400.000	-0.027	399.996	0.215	2.454	1772226268.220
1264	400.000	0.020	399.997	0.780	1.247	1772226268.486
1265	400.000	-0.008	400.002	0.704	4.431	1772226268.718
1266	400.000	-0.037	400.001	0.321	1.777	1772226268.908
1267	400.000	0.026	400.003	0.858	1.068	1772226269.100
1268	400.000	0.005	400.005	0.609	4.687	1772226269.354
1269	400.000	-0.064	399.999	0.456	1.238	1772226269.614
1270	400.000	0.002	399.999	0.238	0.103	1772226269.850
1271	400.000	0.028	399.994	0.526	4.255	1772226270.082
1272	400.000	0.049	400.002	1.031	1.237	1772226270.298
1273	400.000	-0.145	400.003	0.287	5.157	1772226270.563
1274	400.000	0.041	400.000	0.237	3.319	1772226270.788
1275	400.000	-0.043	399.998	0.882	1.249	1772226271.027
1276	400.000	-0.025	399.999	0.578	4.571	1772226271.233
1277	400.000	0.056	399.998	0.277	2.216	1772226271.462
1278	400.000	-0.037	400.000	0.661	1.209	1772226271.633
1279	400.000	-0.026	400.002	0.471	4.836	1772226271.860
1280	400.000	0.009	400.000	0.182	3.022	1772226272.103
1281	400.000	0.023	399.999	0.679	1.253	1772226272.290
1282	400.000	0.047	400.003	0.461	4.954	1772226272.540
1283	400.000	0.055	399.999	0.402	1.410	1772226272.763
1284	400.000	0.011	400.002	0.600	1.284	1772226272.993
1285	400.000	-0.025	400.002	0.565	4.346	1772226273.219
1286	400.000	-0.033	400.002	0.588	1.430	1772226273.475
1287	400.000	-0.011	400.000	0.165	5.912	1772226273.702
1288	400.000	0.034	400.001	0.514	4.244	1772226273.893
1289	400.000	-0.033	400.000	0.959	1.204	1772226274.156
1290	400.000	0.023	400.000	0.236	5.534	1772226274.360
1291	400.000	0.060	400.000	0.563	4.034	1772226274.564
1292	400.000	-0.016	400.003	0.870	1.289	1772226274.773
1293	400.000	-0.001	399.998	0.196	5.471	1772226274.992
1294	400.000	0.032	399.998	0.444	4.045	1772226275.244
1295	400.000	-0.015	400.002	0.860	1.238	1772226275.486
1296	400.000	0.008	400.002	0.611	4.762	1772226275.751
1297	400.000	-0.037	400.002	0.360	1.643	1772226275.981
1298	400.000	0.017	400.001	0.388	1.168	1772226276.235
1299	400.000	0.007	399.999	0.567	4.402	1772226276.445
1300	400.000	0.020	399.999	0.727	1.418	1772226276.665
1301	400.000	-0.010	400.001	0.474	0.930	1772226276.831
1302	400.000	-0.032	400.001	0.641	4.716	1772226277.032
1303	400.000	0.025	400.002	0.487	1.476	1772226277.296
1304	400.000	0.044	400.000	0.362	0.825	1772226277.504
1305	400.000	-0.024	400.001	0.575	4.484	1772226277.730
1306	400.000	0.018	400.000	0.665	1.427	1772226277.923
1307	400.000	-0.031	399.995	0.411	1.096	1772226278.120
1308	400.000	0.034	400.000	0.751	4.478	1772226278.313
1309	400.000	0.024	400.002	0.228	3.027	1772226278.503
1310	400.000	-0.037	399.999	1.052	1.229	1772226278.706
1311	400.000	0.020	400.000	0.493	4.657	1772226278.927
1312	400.000	0.010	400.001	0.227	3.727	1772226279.114
1313	400.000	0.046	399.999	0.913	1.344	1772226279.298
1314	400.000	0.070	399.999	0.371	5.219	1772226279.484
1315	400.000	0.004	400.000	0.518	4.302	1772226279.711
1316	400.000	-0.016	399.999	0.935	1.259	1772226279.969
1317	400.000	0.003	400.002	0.512	4.793	1772226280.172
1318	400.000	0.017	400.000	0.443	4.105	1772226280.359
1319	400.000	-0.023	399.999	1.035	1.243	1772226280.540
1320	400.000	0.038	400.001	0.093	6.001	1772226280.762
1321	400.000	0.022	399.999	0.511	4.007	1772226281.014
1322	400.000	0.023	400.000	0.957	1.270	1772226281.238
1323	400.000	0.005	400.000	0.374	5.019	1772226281.502
1324	400.000	-0.029	399.998	0.331	3.683	1772226281.704
1325	400.000	0.068	400.000	0.953	1.149	1772226281.933
1326	400.000	0.031	399.999	0.602	4.785	1772226282.181
1327	400.000	0.058	400.002	0.226	2.109	1772226282.396
1328	400.000	0.029	399.999	0.545	1.265	1772226282.622
1329	400.000	0.007	400.000	0.597	4.829	1772226282.815
1330	400.000	-0.050	400.002	0.198	2.287	1772226283.073
1331	400.000	0.026	399.997	0.541	1.218	1772226283.316
1332	400.000	-0.016	399.999	0.620	4.539	1772226283.567
1333	400.000	0.060	400.000	0.922	1.209	1772226283.823
1334	400.000	0.004	399.999	0.453	5.347	1772226284.054
1335	400.000	0.008	400.004	0.603	4.177	1772226284.259
1336	400.000	0.017	400.001	0.876	1.222	1772226284.502
1337	400.000	0.010	399.998	0.245	5.431	1772226284.697
1338	400.000	0.004	399.997	0.262	4.167	1772226284.936
1339	400.000	0.033	400.000	0.810	1.284	1772226285.135
1340	400.000	0.048	400.002	0.432	5.031	1772226285.378
1341	400.000	0.010	400.001	0.225	3.380	1772226285.586
1342	400.000	-0.015	400.000	0.799	1.247	1772226285.783
1343	400.000	-0.002	400.000	0.634	4.877	1772226286.001
1344	400.000	-0.020	399.998	0.414	4.040	1772226286.188
1345	400.000	-0.072	399.997	1.094	1.325	1772226286.372
1346	400.000	0.041	399.997	0.194	6.025	1772226286.573
1347	400.000	-0.072	400.002	0.481	4.151	1772226286.805
1348	400.000	0.008	400.000	0.960	1.284	1772226287.002
1349	400.000	-0.048	400.002	0.246	5.841	1772226287.249
1350	400.000	0.076	400.000	0.584	4.084	1772226287.434
1351	400.000	0.043	399.998	0.976	1.337	1772226287.641
1352	400.000	-0.003	400.004	0.126	5.791	1772226287.877
1353	400.000	0.000	399.998	0.430	4.184	1772226288.130
1354	400.000	0.020	400.001	1.003	1.288	1772226288.364
1355	400.000	-0.045	400.003	0.338	5.241	1772226288.549
1356	400.000	-0.002	400.000	0.489	4.211	1772226288.730
1357	400.000	-0.031	399.998	1.023	1.336	1772226288.933
1358	400.000	-0.042	399.998	0.226	5.795	1772226289.194
1359	400.000	0.003	400.003	0.527	4.011	1772226289.416
1360	400.000	0.039	399.998	0.992	1.320	1772226289.618
1361	400.000	0.017	400.000	0.320	5.360	1772226289.881
1362	400.000	-0.008	399.999	0.224	2.823	1772226290.118
1363	400.000	0.009	400.002	0.963	1.238	1772226290.289
1364	400.000	0.007	399.997	0.413	5.227	1772226290.488
1365	400.000	0.045	399.999	0.570	4.004	1772226290.659
1366	400.000	0.015	399.997	0.859	1.371	1772226290.884
1367	400.000	0.006	400.003	0.299	5.791	1772226291.147
1368	400.000	-0.036	400.004	0.435	4.047	1772226291.350
1369	400.000	0.058	400.002	0.972	1.378	1772226291.561
1370	400.000	0.025	399.997	0.240	4.937	1772226291.780
1371	400.000	0.004	400.004	0.536	4.068	1772226291.966
1372	400.000	-0.008	400.002	0.821	1.473	1772226292.165
1373	400.000	0.010	400.002	0.203	0.558	1772226292.402
1374	400.000	-0.049	399.997	0.515	4.238	1772226292.647
1375	400.000	0.019	399.999	1.077	1.324	1772226292.851
1376	400.000	0.063	399.999	0.188	5.388	1772226293.106
1377	400.000	-0.037	400.002	0.300	3.522	1772226293.337
1378	400.000	0.035	400.000	1.137	1.327	1772226293.523
1379	400.000	-0.023	400.002	0.255	4.997	1772226293.720
1380	400.000	0.040	400.001	0.308	3.586	1772226293.972
1381	400.000	0.029	399.999	0.964	1.267	1772226294.210
1382	400.000	-0.012	400.000	0.507	4.775	1772226294.459
1383	400.000	0.047	400.000	0.352	1.720	1772226294.694
1384	400.000	0.030	400.003	0.521	1.199	1772226294.881
1385	400.000	-0.076	400.001	0.713	4.433	1772226295.142
1386	400.000	0.005	400.003	0.242	1.880	1772226295.315
1387	400.000	0.042	400.002	0.603	1.128	1772226295.519
1388	400.000	-0.048	400.001	0.563	4.752	1772226295.710
1389	400.000	0.050	400.000	0.422	3.758	1772226295.872
1390	400.000	-0.018	399.997	0.884	1.327	1772226296.106
1391	400.000	-0.030	400.000	0.225	5.119	1772226296.280
1392	400.000	0.065	400.000	0.601	4.300	1772226296.479
1393	400.000	-0.005	399.996	0.629	1.475	1772226296.675
1394	400.000	-0.036	400.003	0.177	0.171	1772226296.907
1395	400.000	0.055	400.003	0.556	4.250	1772226297.135
1396	400.000	-0.047	399.998	1.009	1.303	1772226297.383
1397	400.000	-0.005	400.002	0.313	4.791	1772226297.600
1398	400.000	-0.012	399.999	0.407	3.945	1772226297.827
1399	400.000	-0.004	399.999	0.903	1.288	1772226298.102
1400	400.000	-0.029	400.000	0.610	4.747	1772226298.291
1401	400.000	-0.014	400.002	0.160	2.314	1772226298.513
1402	400.000	0.077	399.999	0.842	1.307	1772226298.730
1403	400.000	-0.044	399.999	0.556	4.756	1772226298.983
1404	400.000	-0.014	400.001	0.537	1.595	1772226299.206
1405	400.000	-0.001	399.995	0.470	1.105	1772226299.405
1406	400.000	-0.060	400.005	0.581	4.790	1772226299.563
1407	400.000	0.006	400.004	0.137	2.485	1772226299.807
1408	400.000	-0.029	400.002	0.681	1.228	1772226300.042
1409	400.000	0.010	400.001	0.647	4.506	1772226300.274
1410	400.000	-0.024	400.003	0.689	1.476	1772226300.530
1411	400.000	0.005	399.998	0.561	1.220	1772226300.728
1412	400.000	0.034	399.999	0.707	4.410	1772226300.924
1413	400.000	0.038	400.002	0.634	1.525	1772226301.151
1414	400.000	0.018	399.997	0.216	6.266	1772226301.400
1415	400.000	0.087	400.000	0.544	4.296	1772226301.607
1416	400.000	-0.048	400.001	0.888	1.367	1772226301.837
1417	400.000	0.054	399.998	0.193	0.174	1772226302.022
1418	400.000	0.043	400.001	0.623	4.495	1772226302.224
1419	400.000	-0.001	400.004	0.814	1.337	1772226302.462
1420	400.000	-0.076	399.998	0.221	0.725	1772226302.664
1421	400.000	-0.049	399.997	0.644	4.509	1772226302.901
1422	400.000	0.037	399.999	0.899	1.332	1772226303.152
1423	400.000	-0.089	399.998	0.376	4.821	1772226303.410
1424	400.000	-0.006	400.002	0.357	3.916	1772226303.633
1425	400.000	-0.024	400.000	0.980	1.239	1772226303.847
1426	400.000	-0.048	400.000	0.509	5.013	1772226304.061
1427	400.000	0.038	400.002	0.290	3.974	1772226304.260
1428	400.000	0.047	400.000	1.005	1.376	1772226304.442
1429	400.000	0.035	400.001	0.141	4.840	1772226304.648
1430	400.000	-0.075	399.999	0.428	4.439	1772226304.899
1431	400.000	0.032	400.001	1.029	1.220	1772226305.142
1432	400.000	-0.049	400.002	0.469	4.875	1772226305.375
1433	400.000	0.008	400.002	0.267	3.612	1772226305.558
1434	400.000	0.082	399.999	1.080	1.233	1772226305.750
1435	400.000	0.052	400.001	0.206	5.315	1772226305.945
1436	400.000	-0.040	400.003	0.374	4.116	1772226306.192
1437	400.000	0.065	399.997	0.852	1.245	1772226306.465
1438	400.000	0.030	399.998	0.589	4.687	1772226306.687
1439	400.000	0.021	400.001	0.266	2.151	1772226306.887
1440	400.000	-0.016	399.998	0.680	1.207	1772226307.132
1441	400.000	-0.026	400.002	0.643	4.426	1772226307.381
1442	400.000	0.012	399.999	0.721	1.359	1772226307.583
1443	400.000	0.015	400.002	0.343	0.819	1772226307.848
1444	400.000	0.054	400.004	0.578	4.433	1772226308.069
1445	400.000	0.020	400.002	0.930	1.303	1772226308.301
1446	400.000	-0.002	400.004	0.230	5.365	1772226308.527
1447	400.000	0.020	400.003	0.555	4.076	1772226308.769
1448	400.000	0.027	400.000	0.901	1.304	1772226308.980
1449	400.000	-0.026	400.001	0.490	4.859	1772226309.196
1450	400.000	0.046	399.998	0.355	3.722	1772226309.446
1451	400.000	0.031	400.000	0.913	1.273	1772226309.636
1452	400.000	-0.007	399.999	0.460	4.773	1772226309.862
1453	400.000	-0.008	400.000	0.345	2.943	1772226310.067
1454	400.000	0.024	399.999	0.847	1.268	1772226310.317
1455	400.000	0.017	400.001	0.619	4.754	1772226310.531
1456	400.000	-0.010	399.999	0.197	2.892	1772226310.737
1457	400.000	-0.071	400.002	0.965	1.325	1772226310.921
1458	400.000	0.067	400.000	0.414	5.276	1772226311.133
1459	400.000	0.001	400.000	0.142	2.137	1772226311.391
1460	400.000	0.035	400.001	0.744	1.287	1772226311.597
1461	400.000	0.016	399.999	0.531	4.799	1772226311.814
1462	400.000	0.060	400.000	0.231	2.260	1772226312.061
1463	400.000	-0.069	399.999	0.620	1.104	1772226312.249
1464	400.000	0.010	399.997	0.657	4.930	1772226312.445
1465	400.000	-0.015	399.998	0.390	1.675	1772226312.726
1466	400.000	-0.031	399.996	0.307	0.683	1772226312.941
1467	400.000	0.084	399.999	0.562	4.524	1772226313.191
1468	400.000	0.040	400.001	0.989	1.356	1772226313.442
1469	400.000	0.019	400.001	0.414	0.020	1772226313.625
1470	400.000	-0.083	400.002	0.535	4.475	1772226313.802
1471	400.000	0.045	400.003	0.700	1.375	1772226314.004
1472	400.000	0.007	399.999	0.341	0.947	1772226314.203
1473	400.000	0.070	400.003	0.593	4.722	1772226314.444
1474	400.000	-0.012	399.999	0.741	1.421	1772226314.697
1475	400.000	-0.004	400.001	0.258	5.325	1772226314.932
1476	400.000	-0.015	400.000	0.314	4.007	1772226315.197
1477	400.000	0.018	399.999	0.803	1.363	1772226315.424
1478	400.000	-0.039	400.000	0.594	4.886	1772226315.609
1479	400.000	0.023	400.002	0.341	3.894	1772226315.792
1480	400.000	0.024	399.999	1.097	1.265	1772226316.002
1481	400.000	0.024	400.001	0.252	5.396	1772226316.185
1482	400.000	0.042	400.000	0.569	4.190	1772226316.388
1483	400.000	-0.008	399.999	0.795	1.243	1772226316.589
1484	400.000	-0.039	399.999	0.086	1.456	1772226316.798
1485	400.000	-0.029	400.005	0.621	4.519	1772226316.994
1486	400.000	-0.036	399.999	0.536	1.457	1772226317.174
1487	400.000	0.022	400.002	0.427	0.879	1772226317.438
1488	400.000	-0.019	400.002	0.678	4.503	1772226317.638
1489	400.000	-0.013	400.004	0.658	1.474	1772226317.863
1490	400.000	-0.057	400.002	0.195	0.915	1772226318.140
1491	400.000	-0.031	400.000	0.410	4.064	1772226318.374
1492	400.000	-0.043	400.003	0.913	1.304	1772226318.551
1493	400.000	-0.047	399.998	0.163	6.189	1772226318.753
1494	400.000	-0.041	400.000	0.529	4.205	1772226318.996
1495	400.000	-0.040	400.001	0.951	1.255	1772226319.193
1496	400.000	-0.053	399.997	0.202	5.820	1772226319.429
1497	400.000	0.001	400.003	0.384	3.820	1772226319.683
1498	400.000	0.011	400.000	0.776	1.285	1772226319.939
1499	400.000	0.059	400.003	0.583	4.897	1772226320.141
1500	400.000	0.008	400.001	0.454	2.037	1772226320.402
1501	400.000	-0.074	399.996	0.406	1.088	1772226320.640
1502	400.000	-0.058	400.001	0.601	4.624	1772226320.827
1503	400.000	0.082	399.999	0.576	1.436	1772226321.072
1504	400.000	0.014	399.998	0.484	1.181	1772226321.270
1505	400.000	0.055	400.002	0.552	4.552	1772226321.440
1506	400.000	-0.061	400.002	0.312	1.925	1772226321.667
1507	400.000	0.007	400.000	0.655	1.117	1772226321.900
1508	400.000	0.007	399.997	0.736	4.645	1772226322.089
1509	400.000	0.015	400.001	0.444	1.584	1772226322.335
1510	400.000	-0.007	400.002	0.515	1.217	1772226322.556
1511	400.000	-0.017	399.999	0.666	4.689	1772226322.769
1512	400.000	0.047	400.000	0.583	1.528	1772226323.009
1513	400.000	-0.041	399.999	0.611	1.401	1772226323.198
1514	400.000	0.064	399.998	0.596	4.713	1772226323.378
1515	400.000	0.021	399.998	0.302	1.727	1772226323.607
1516	400.000	0.033	400.000	0.457	1.228	1772226323.861
1517	400.000	-0.074	399.997	0.658	4.474	1772226324.098
1518	400.000	0.000	399.996	0.764	1.513	1772226324.298
1519	400.000	0.015	399.998	0.459	1.142	1772226324.463
1520	400.000	0.003	400.001	0.641	4.612	1772226324.622
1521	400.000	-0.037	399.997	0.223	2.763	1772226324.851
1522	400.000	-0.007	400.000	1.006	1.334	1772226325.029
1523	400.000	0.011	399.998	0.465	4.894	1772226325.297
1524	400.000	-0.052	399.999	0.328	1.850	1772226325.527
1525	400.000	-0.018	400.000	0.686	1.325	1772226325.748
1526	400.000	0.019	400.001	0.651	4.590	1772226325.968
1527	400.000	0.051	400.000	0.669	1.581	1772226326.220
1528	400.000	0.051	399.999	0.215	0.379	1772226326.477
1529	400.000	-0.025	399.997	0.250	4.072	1772226326.741
1530	400.000	-0.003	400.000	0.970	1.352	1772226326.984
1531	400.000	0.005	399.999	0.478	4.657	1772226327.219
1532	400.000	-0.039	400.002	0.218	1.527	1772226327.439
1533	400.000	-0.011	400.003	0.856	1.335	1772226327.656
1534	400.000	0.003	400.002	0.624	4.748	1772226327.907
1535	400.000	0.042	399.998	0.559	1.451	1772226328.093
1536	400.000	0.020	399.997	0.713	1.378	1772226328.292
1537	400.000	0.025	400.002	0.633	4.643	1772226328.546
1538	400.000	0.071	399.998	0.418	1.561	1772226328.744
1539	400.000	-0.069	400.001	0.649	1.219	1772226328.974
1540	400.000	0.022	400.002	0.658	4.690	1772226329.173
1541	400.000	-0.060	399.999	0.340	1.968	1772226329.418
1542	400.000	-0.025	400.001	0.460	1.383	1772226329.668
1543	400.000	-0.015	399.999	0.581	4.536	1772226329.893
1544	400.000	-0.021	400.000	0.854	1.408	1772226330.153
1545	400.000	-0.015	399.998	0.133	5.641	1772226330.352
1546	400.000	-0.031	399.998	0.496	4.020	1772226330.581
1547	400.000	-0.020	399.998	0.961	1.366	1772226330.841
1548	400.000	0.020	399.999	0.466	5.172	1772226331.038
1549	400.000	-0.000	399.997	0.355	3.982	1772226331.266
1550	400.000	0.012	400.001	0.894	1.361	1772226331.459
1551	400.000	0.050	400.001	0.376	5.183	1772226331.701
1552	400.000	-0.064	400.000	0.260	3.658	1772226331.939
1553	400.000	0.008	400.003	0.828	1.348	1772226332.188
1554	400.000	0.023	399.999	0.604	4.528	1772226332.435
1555	400.000	-0.013	400.000	0.796	1.425	1772226332.700
1556	400.000	0.025	400.000	0.171	6.004	1772226332.947
1557	400.000	-0.009	400.002	0.378	4.245	1772226333.174
1558	400.000	-0.039	399.998	0.961	1.440	1772226333.446
1559	400.000	0.044	399.999	0.566	4.732	1772226333.694
1560	400.000	0.019	399.999	0.299	1.586	1772226333.954
1561	400.000	-0.002	400.003	0.482	1.145	1772226334.162
1562	400.000	0.022	400.001	0.654	4.491	1772226334.365
1563	400.000	0.007	400.000	0.416	1.697	1772226334.565
1564	400.000	0.030	400.000	0.571	1.344	1772226334.790
1565	400.000	-0.001	400.003	0.570	4.705	1772226334.986
1566	400.000	-0.105	400.004	0.154	2.206	1772226335.172
1567	400.000	0.012	400.002	0.960	1.436	1772226335.348
1568	400.000	-0.019	400.002	0.362	5.118	1772226335.577
1569	400.000	-0.011	399.997	0.255	3.531	1772226335.805
1570	400.000	0.032	400.000	0.837	1.362	1772226336.055
1571	400.000	-0.004	399.997	0.631	4.571	1772226336.314
1572	400.000	-0.017	400.001	0.663	1.579	1772226336.557
1573	400.000	0.023	399.999	0.274	0.912	1772226336.794
1574	400.000	0.053	400.001	0.456	4.248	1772226337.024
1575	400.000	0.044	400.000	1.004	1.385	1772226337.219
1576	400.000	-0.011	400.002	0.108	0.726	1772226337.406
1577	400.000	0.048	400.000	0.645	4.352	1772226337.639
1578	400.000	-0.046	399.999	0.969	1.355	1772226337.879
1579	400.000	0.008	400.003	0.225	4.995	1772226338.133
1580	400.000	-0.046	400.000	0.458	4.216	1772226338.324
1581	400.000	-0.002	400.002	0.963	1.325	1772226338.570
1582	400.000	0.002	399.998	0.488	4.602	1772226338.819
1583	400.000	0.056	399.995	0.142	2.425	1772226339.063
1584	400.000	0.048	400.002	0.791	1.433	1772226339.260
1585	400.000	-0.044	400.004	0.535	4.809	1772226339.455
1586	400.000	0.064	399.999	0.129	2.593	1772226339.693
1587	400.000	0.037	400.001	0.827	1.333	1772226339.940
1588	400.000	0.006	399.996	0.699	4.664	1772226340.148
1589	400.000	-0.023	400.001	0.602	1.530	1772226340.373
1590	400.000	0.012	400.003	0.265	1.073	1772226340.621
1591	400.000	-0.026	400.005	0.608	4.477	1772226340.825
1592	400.000	0.039	400.003	0.780	1.431	1772226341.064
1593	400.000	-0.044	400.002	0.169	0.577	1772226341.316
1594	400.000	-0.021	399.997	0.585	4.325	1772226341.510
1595	400.000	0.017	399.999	0.860	1.388	1772226341.692
1596	400.000	-0.059	399.999	0.389	1.332	1772226341.889
1597	400.000	0.022	399.998	0.585	4.587	1772226342.138
1598	400.000	-0.043	400.002	0.912	1.308	1772226342.391
1599	400.000	0.011	400.002	0.174	5.486	1772226342.617
1600	400.000	-0.067	399.998	0.452	4.222	1772226342.825
1601	400.000	-0.064	400.001	1.029	1.379	1772226343.069
1602	400.000	-0.038	400.002	0.289	4.899	1772226343.301
1603	400.000	0.039	399.999	0.397	3.675	1772226343.501
1604	400.000	-0.052	399.999	0.928	1.306	1772226343.761
1605	400.000	-0.017	400.001	0.427	4.556	1772226344.020
1606	400.000	-0.034	400.003	0.632	1.434	1772226344.266
1607	400.000	-0.028	399.999	0.207	1.174	1772226344.503
1608	400.000	-0.008	400.000	0.524	4.306	1772226344.761
1609	400.000	0.033	400.001	0.966	1.375	1772226345.008
1610	400.000	-0.042	400.000	0.445	4.774	1772226345.241
1611	400.000	-0.085	400.002	0.177	2.486	1772226345.502
1612	400.000	0.065	400.000	0.797	1.426	1772226345.696
1613	400.000	-0.007	400.003	0.604	4.461	1772226345.920
1614	400.000	0.010	400.001	0.228	1.796	1772226346.121
1615	400.000	-0.085	399.997	0.685	1.313	1772226346.389
1616	400.000	0.064	399.998	0.580	4.527	1772226346.631
1617	400.000	-0.013	400.003	0.498	1.523	1772226346.886
1618	400.000	0.035	400.003	0.186	5.229	1772226347.144
1619	400.000	-0.008	399.999	0.375	3.846	1772226347.374
1620	400.000	-0.020	400.002	1.059	1.403	1772226347.564
1621	400.000	0.031	400.000	0.391	4.927	1772226347.804
1622	400.000	-0.047	400.002	0.173	3.767	1772226348.018
1623	400.000	-0.036	400.001	0.846	1.394	1772226348.257
1624	400.000	0.006	399.999	0.522	4.753	1772226348.497
1625	400.000	-0.019	400.001	0.327	2.760	1772226348.697
1626	400.000	-0.021	399.997	0.711	1.482	1772226348.915
1627	400.000	-0.005	400.001	0.489	4.750	1772226349.114
1628	400.000	0.048	400.001	0.347	3.625	1772226349.310
1629	400.000	0.019	399.999	1.005	1.390	1772226349.505
1630	400.000	0.051	399.998	0.237	5.034	1772226349.705
1631	400.000	-0.046	400.000	0.479	4.312	1772226349.914
1632	400.000	0.054	400.001	1.045	1.258	1772226350.144
1633	400.000	-0.012	400.001	0.297	4.879	1772226350.352
1634	400.000	0.056	399.998	0.313	3.751	1772226350.607
1635	400.000	0.023	400.001	0.930	1.337	1772226350.827
1636	400.000	0.029	400.001	0.479	4.714	1772226351.025
1637	400.000	0.023	399.999	0.230	2.229	1772226351.306
1638	400.000	0.002	400.005	0.609	1.275	1772226351.542
1639	400.000	-0.072	400.001	0.590	4.292	1772226351.774
1640	400.000	-0.039	399.998	0.727	1.428	1772226351.968
1641	400.000	-0.013	399.999	0.565	1.483	1772226352.159
1642	400.000	-0.029	400.001	0.563	4.471	1772226352.398
1643	400.000	0.056	400.001	0.648	1.516	1772226352.582
1644	400.000	0.015	400.001	0.268	1.093	1772226352.868
1645	400.000	-0.002	399.999	0.558	4.203	1772226353.066
1646	400.000	0.003	400.003	0.989	1.444	1772226353.279
1647	400.000	0.028	400.001	0.207	1.110	1772226353.457
1648	400.000	-0.054	400.001	0.510	4.381	1772226353.724
1649	400.000	0.011	399.998	1.050	1.371	1772226353.921
1650	400.000	0.050	400.002	0.129	0.885	1772226354.155
1651	400.000	-0.031	399.999	0.583	4.278	1772226354.326
1652	400.000	0.000	400.000	0.724	1.492	1772226354.548
1653	400.000	0.049	400.001	0.259	1.194	1772226354.789
1654	400.000	0.021	400.000	0.531	4.164	1772226355.015
1655	400.000	0.012	399.998	0.693	1.332	1772226355.210
1656	400.000	-0.060	400.001	0.261	1.097	1772226355.428
1657	400.000	0.018	400.000	0.682	4.231	1772226355.650
1658	400.000	-0.001	400.000	0.885	1.396	1772226355.884
1659	400.000	-0.008	400.000	0.262	5.631	1772226356.141
1660	400.000	-0.016	400.001	0.201	3.108	1772226356.392
1661	400.000	-0.043	400.000	0.662	1.294	1772226356.603
1662	400.000	0.007	399.998	0.458	4.839	1772226356.822
1663	400.000	0.011	400.001	0.242	1.910	1772226357.069
1664	400.000	-0.043	399.999	0.538	1.101	1772226357.281
1665	400.000	0.055	400.000	0.510	4.691	1772226357.492
1666	400.000	0.009	400.002	0.423	1.776	1772226357.700
1667	400.000	0.013	400.001	0.470	1.202	1772226357.950
1668	400.000	-0.015	400.002	0.608	4.539	1772226358.173
1669	400.000	-0.013	399.998	0.613	1.542	1772226358.369
1670	400.000	0.050	399.997	0.936	1.256	1772226358.545
1671	400.000	-0.032	400.002	0.347	4.965	1772226358.775
1672	400.000	0.033	400.001	0.244	1.760	1772226359.011
1673	400.000	-0.011	399.999	0.447	1.370	1772226359.238
1674	400.000	0.005	399.999	0.603	4.344	1772226359.510
1675	400.000	0.000	400.000	0.984	1.367	1772226359.735
1676	400.000	-0.011	399.999	0.140	0.580	1772226359.918
1677	400.000	0.007	399.997	0.610	4.297	1772226360.100
1678	400.000	-0.065	400.002	0.698	1.504	1772226360.297
1679	400.000	0.020	400.000	0.476	1.184	1772226360.530
1680	400.000	0.008	399.998	0.530	4.340	1772226360.790
1681	400.000	0.012	399.998	0.996	1.316	1772226361.036
1682	400.000	0.038	399.999	0.243	5.001	1772226361.276
1683	400.000	0.009	399.998	0.263	3.578	1772226361.499
1684	400.000	0.032	399.999	0.975	1.299	1772226361.719
1685	400.000	0.017	399.999	0.392	4.882	1772226361.975
1686	400.000	0.085	400.003	0.602	1.594	1772226362.207
1687	400.000	-0.008	400.000	0.559	1.335	1772226362.450
1688	400.000	0.029	400.004	0.501	4.438	1772226362.671
1689	400.000	-0.009	399.997	0.531	1.661	1772226362.879
1690	400.000	0.005	399.999	0.531	1.338	1772226363.069
1691	400.000	-0.003	400.006	0.589	4.555	1772226363.242
1692	400.000	-0.007	400.003	0.192	2.166	1772226363.442
1693	400.000	0.039	399.999	0.890	1.265	1772226363.638
1694	400.000	0.023	399.999	0.301	5.148	1772226363.887
1695	400.000	-0.008	399.997	0.208	3.413	1772226364.079
1696	400.000	0.001	400.002	0.999	1.256	1772226364.288
1697	400.000	-0.017	400.000	0.097	6.025	1772226364.498
1698	400.000	-0.032	399.995	0.389	3.761	1772226364.720
1699	400.000	-0.025	400.002	0.889	1.389	1772226364.958
1700	400.000	0.012	400.001	0.349	4.688	1772226365.153
1701	400.000	-0.003	400.002	0.440	4.015	1772226365.319
1702	400.000	-0.004	399.998	0.887	1.383	1772226365.520
1703	400.000	0.028	400.000	0.673	1.472	1772226365.692
1704	400.000	0.004	400.004	0.480	1.367	1772226365.914
1705	400.000	-0.023	400.000	0.107	0.820	1772226366.156
1706	400.000	0.035	399.998	0.415	4.660	1772226366.383
1707	400.000	-0.029	400.000	0.365	4.185	1772226366.580
1708	400.000	-0.043	400.000	0.356	4.511	1772226366.822
1709	400.000	-0.011	399.999	0.350	4.401	1772226367.013
1710	400.000	-0.060	399.998	0.371	4.152	1772226367.222
1711	400.000	-0.047	400.001	0.399	4.137	1772226367.458
1712	400.000	-0.016	400.000	0.323	4.434	1772226367.691
1713	400.000	-0.001	400.001	0.328	4.039	1772226367.900
1714	400.000	-0.004	400.005	0.388	3.919	1772226368.118
1715	400.000	0.007	400.001	0.363	4.050	1772226368.314
1716	400.000	-0.002	399.996	0.279	4.375	1772226368.519
1717	400.000	-0.022	399.999	0.388	4.088	1772226368.711
1718	400.000	0.029	399.998	0.297	4.095	1772226368.916
1719	400.000	-0.015	399.995	0.391	4.259	1772226369.174
1720	400.000	-0.023	399.998	0.338	4.212	1772226369.349
1721	400.000	0.012	399.998	0.423	4.285	1772226369.556
1722	400.000	0.013	400.002	0.333	4.268	1772226369.811
1723	400.000	-0.049	399.998	0.337	4.484	1772226370.030
1724	400.000	0.070	400.000	0.317	4.089	1772226370.231
1725	400.000	-0.044	399.999	0.411	4.176	1772226370.493
1726	400.000	0.048	399.998	0.460	4.196	1772226370.738
1727	400.000	0.031	400.002	0.355	4.508	1772226370.980
1728	400.000	-0.056	400.003	0.325	4.216	1772226371.179
1729	400.000	0.052	400.000	0.299	4.503	1772226371.368
1730	400.000	0.056	399.997	0.296	4.257	1772226371.609
1731	400.000	-0.021	399.997	0.435	4.032	1772226371.792
1732	400.000	0.026	399.999	0.248	4.704	1772226371.964
1733	400.000	-0.026	400.000	0.501	4.063	1772226372.177
1734	400.000	0.010	399.997	0.343	4.330	1772226372.443
1735	400.000	-0.030	400.002	0.442	4.404	1772226372.670
1736	400.000	-0.051	400.000	0.358	3.938	1772226372.862
1737	400.000	0.012	399.999	0.342	4.426	1772226373.120
1738	400.000	0.022	400.002	0.414	3.856	1772226373.310
1739	400.000	-0.097	400.001	0.314	4.332	1772226373.501
1740	400.000	-0.002	399.998	0.407	4.097	1772226373.731
1741	400.000	-0.030	399.997	0.379	4.015	1772226373.909
1742	400.000	0.038	399.997	0.308	3.993	1772226374.139
1743	400.000	-0.002	399.998	0.440	4.375	1772226374.353
1744	400.000	0.015	399.997	0.358	4.300	1772226374.539
1745	400.000	-0.020	400.000	0.377	4.113	1772226374.737
1746	400.000	-0.037	399.997	0.270	4.137	1772226374.937
1747	400.000	0.015	400.001	0.405	4.081	1772226375.175
1748	400.000	0.030	400.001	0.257	4.203	1772226375.437
1749	400.000	-0.030	400.002	0.369	4.154	1772226375.671
1750	400.000	-0.005	399.999	0.291	4.308	1772226375.949
1751	400.000	-0.030	400.002	0.370	4.417	1772226376.158
1752	400.000	-0.018	400.000	0.272	4.197	1772226376.362
1753	400.000	-0.006	399.999	0.292	4.510	1772226376.555
1754	400.000	0.054	399.999	0.200	4.892	1772226376.757
1755	400.000	0.023	400.003	0.287	4.265	1772226376.984
1756	400.000	0.000	399.999	0.353	4.204	1772226377.166
1757	400.000	-0.015	400.000	0.325	4.171	1772226377.345
1758	400.000	0.011	399.999	0.379	4.250	1772226377.534
1759	400.000	-0.020	400.000	0.326	4.326	1772226377.733
1760	400.000	0.041	400.000	0.313	4.293	1772226377.974
1761	400.000	-0.008	400.000	0.272	4.330	1772226378.156
1762	400.000	0.012	400.000	0.304	4.018	1772226378.374
1763	400.000	-0.025	400.002	0.319	4.228	1772226378.592
1764	400.000	-0.035	400.000	0.330	4.327	1772226378.793
1765	400.000	-0.013	399.998	0.384	4.163	1772226379.055
1766	400.000	-0.027	399.999	0.382	4.414	1772226379.287
1767	400.000	0.053	400.001	0.386	4.231	1772226379.469
1768	400.000	-0.021	400.000	0.264	3.957	1772226379.679
1769	400.000	0.025	399.997	0.393	4.435	1772226379.937
1770	400.000	-0.043	400.000	0.216	4.646	1772226380.158
1771	400.000	0.033	400.001	0.325	4.149	1772226380.366
1772	400.000	-0.010	400.001	0.452	4.090	1772226380.563
1773	400.000	0.082	400.001	0.345	4.240	1772226380.792
1774	400.000	0.004	399.999	0.328	3.938	1772226380.997
1775	400.000	0.006	400.002	0.323	4.202	1772226381.231
1776	400.000	-0.017	400.000	0.370	4.415	1772226381.490
1777	400.000	-0.013	400.000	0.295	4.358	1772226381.725
1778	400.000	0.023	399.996	0.486	4.111	1772226381.906
1779	400.000	-0.008	399.998	0.314	4.420	1772226382.094
1780	400.000	0.033	400.000	0.380	3.998	1772226382.300
1781	400.000	-0.068	399.999	0.333	4.161	1772226382.529
1782	400.000	-0.026	400.000	0.343	4.217	1772226382.740
1783	400.000	0.004	400.004	0.237	4.268	1772226382.931
1784	400.000	0.003	399.998	0.394	4.313	1772226383.146
1785	400.000	-0.023	400.000	0.422	4.330	1772226383.372
1786	400.000	-0.022	399.998	0.361	4.326	1772226383.616
1787	400.000	0.040	399.999	0.236	4.610	1772226383.810
1788	400.000	-0.008	399.998	0.346	3.971	1772226383.998
1789	400.000	0.036	400.001	0.370	4.213	1772226384.168
1790	400.000	-0.066	399.997	0.359	4.152	1772226384.359
1791	400.000	-0.006	400.000	0.320	4.244	1772226384.904
1792	400.000	-0.082	399.998	0.364	4.449	1772226385.146
1793	400.000	0.038	400.000	0.372	4.339	1772226385.375
1794	400.000	0.052	399.999	0.379	4.203	1772226385.576
1795	400.000	-0.006	400.001	0.384	4.303	1772226385.794
1796	400.000	-0.055	400.000	0.278	4.224	1772226385.985
1797	400.000	-0.006	400.000	0.255	4.204	1772226386.171
1798	400.000	0.035	399.999	0.304	4.477	1772226386.399
1799	400.000	-0.006	400.001	0.449	4.263	1772226386.587
1800	400.000	-0.025	399.999	0.400	4.325	1772226386.754
1801	400.000	-0.016	400.001	0.354	4.463	1772226386.968
1802	400.000	-0.026	400.001	0.338	4.275	1772226387.146
1803	400.000	0.046	400.001	0.340	4.099	1772226387.325
1804	400.000	-0.048	400.001	0.444	4.182	1772226387.546
1805	400.000	0.030	399.996	0.411	4.417	1772226387.759
1806	400.000	0.027	399.999	0.315	4.147	1772226387.980
1807	400.000	-0.054	400.000	0.280	4.234	1772226388.191
1808	400.000	-0.067	400.003	0.426	4.140	1772226388.357
1809	400.000	-0.027	399.998	0.368	4.171	1772226388.561
1810	400.000	0.047	399.998	0.424	4.153	1772226388.742
1811	400.000	0.010	399.998	0.412	4.058	1772226388.931
1812	400.000	-0.029	399.997	0.257	4.314	1772226389.131
1813	400.000	-0.003	400.003	0.460	4.256	1772226389.316
1814	400.000	0.003	399.998	0.303	4.157	1772226389.499
1815	400.000	0.031	399.998	0.413	4.109	1772226389.685
1816	400.000	-0.051	399.999	0.269	4.279	1772226389.887
1817	400.000	0.038	400.001	0.437	4.229	1772226390.117
1818	400.000	-0.047	400.002	0.306	4.290	1772226390.326
1819	400.000	0.023	399.999	0.489	4.001	1772226390.516
1820	400.000	0.009	399.997	0.403	4.006	1772226390.707
1821	400.000	-0.019	400.000	0.348	4.131	1772226390.941
1822	400.000	0.009	400.000	0.194	4.514	1772226391.143
1823	400.000	-0.008	400.001	0.468	4.156	1772226391.325
1824	400.000	-0.022	399.998	0.342	4.142	1772226391.512
1825	400.000	-0.021	399.997	0.473	4.326	1772226391.692
1826	400.000	0.064	400.001	0.217	4.453	1772226391.858
1827	400.000	-0.020	400.000	0.435	4.068	1772226392.071
1828	400.000	-0.006	400.000	0.339	4.278	1772226392.266
1829	400.000	0.045	399.999	0.308	4.132	1772226392.451
1830	400.000	0.023	399.999	0.325	4.499	1772226392.648
1831	400.000	-0.031	399.999	0.250	4.696	1772226392.823
1832	400.000	0.022	400.001	0.235	4.124	1772226393.020
1833	400.000	0.014	400.001	0.314	4.240	1772226393.202
1834	400.000	0.046	400.000	0.350	3.982	1772226393.401
1835	400.000	-0.030	399.999	0.278	3.989	1772226393.599
1836	400.000	-0.004	400.000	0.319	4.227	1772226393.784
