Point No.	Frequency Set (GHz)	THz Photocurrent (nA)	Frequency Act (GHz)	Amplitude (via StrMod)	Phase (via StrMod)	Timestamp (s)
1	700.000	-0.006	699.996	0.115	2.447	1772053478.486
2	700.000	0.003	699.997	0.112	2.616	1772053478.763
3	700.000	0.019	700.002	0.114	2.160	1772053479.001
4	700.000	0.042	700.001	0.098	2.388	1772053479.242
5	700.000	0.005	699.999	0.149	2.421	1772053479.505
6	700.000	-0.028	700.002	0.134	2.244	1772053479.749
7	700.000	-0.003	699.999	0.098	2.115	1772053479.999
8	700.000	-0.010	699.996	0.143	2.669	1772053480.229
9	700.000	-0.045	700.000	0.067	3.314	1772053480.498
10	700.000	0.019	700.000	0.129	2.202	1772053480.749
11	700.000	0.004	700.000	0.140	2.500	1772053481.001
12	700.000	-0.004	700.004	0.082	2.586	1772053481.258
13	700.000	-0.013	700.000	0.085	2.208	1772053481.503
14	700.000	0.011	700.001	0.114	2.851	1772053481.769
15	700.000	0.014	699.998	0.096	2.670	1772053482.006
16	700.000	-0.018	700.000	0.135	2.493	1772053482.286
17	700.000	-0.008	699.999	0.171	2.476	1772053482.500
18	700.000	-0.019	700.001	0.147	2.471	1772053482.776
19	700.000	-0.001	700.002	0.138	2.363	1772053483.020
20	700.000	0.031	699.999	0.123	2.732	1772053483.264
21	700.000	0.040	699.998	0.089	2.280	1772053483.509
22	700.000	0.032	700.001	0.145	2.887	1772053483.766
23	700.000	0.004	700.001	0.143	2.254	1772053484.020
24	700.000	-0.032	699.997	0.144	2.986	1772053484.252
25	700.000	0.038	700.004	0.110	2.128	1772053484.530
26	700.000	0.012	699.999	0.175	2.541	1772053484.766
27	700.000	-0.001	699.999	0.131	2.675	1772053485.094
28	700.000	-0.033	700.001	0.123	2.335	1772053485.399
29	700.000	-0.021	700.002	0.164	2.945	1772053485.613
30	700.000	-0.002	699.997	0.186	2.241	1772053485.886
31	700.000	-0.017	700.001	0.175	2.413	1772053486.138
32	700.000	-0.013	699.999	0.113	2.263	1772053486.389
33	700.000	-0.014	700.001	0.191	3.055	1772053486.644
34	700.000	-0.028	699.997	0.128	2.827	1772053486.882
35	700.000	-0.006	699.998	0.161	2.352	1772053487.125
36	700.000	0.004	700.002	0.158	2.583	1772053487.392
37	700.000	-0.036	700.002	0.166	2.948	1772053487.660
38	700.000	0.045	700.002	0.153	2.568	1772053487.918
39	700.000	-0.019	699.998	0.181	2.236	1772053488.201
40	700.000	-0.019	700.000	0.184	2.406	1772053488.455
41	700.000	-0.021	699.999	0.082	2.562	1772053488.717
42	700.000	-0.032	699.999	0.148	2.788	1772053488.953
43	700.000	0.008	699.999	0.100	2.345	1772053489.223
44	700.000	-0.030	700.003	0.131	2.718	1772053489.476
45	700.000	0.004	699.999	0.109	2.172	1772053489.759
46	700.000	-0.002	700.001	0.101	2.505	1772053490.003
47	700.000	0.015	700.003	0.088	2.642	1772053490.299
48	700.000	-0.044	700.001	0.122	2.073	1772053490.591
49	700.000	-0.012	700.001	0.189	2.433	1772053490.827
50	700.000	0.024	699.999	0.101	2.386	1772053491.054
51	700.000	-0.003	700.003	0.108	2.143	1772053491.311
52	700.000	0.002	700.004	0.144	2.346	1772053491.580
53	700.000	0.000	700.000	0.082	1.986	1772053491.834
54	700.000	-0.032	700.001	0.152	2.673	1772053492.083
55	700.000	0.007	700.001	0.164	2.579	1772053492.332
56	700.000	-0.010	700.000	0.231	2.805	1772053492.590
57	700.000	-0.003	700.003	0.123	2.801	1772053492.828
58	700.000	0.007	700.000	0.137	2.000	1772053493.115
59	700.000	-0.004	699.997	0.116	2.856	1772053493.382
60	700.000	0.012	700.000	0.148	2.575	1772053493.667
61	700.000	0.004	699.996	0.183	2.943	1772053493.962
62	700.000	-0.003	699.997	0.152	2.395	1772053494.195
63	700.000	0.004	699.998	0.118	2.878	1772053494.474
64	700.000	0.020	700.001	0.171	2.814	1772053494.751
65	700.000	0.018	699.999	0.144	3.065	1772053495.026
66	700.000	-0.017	699.998	0.158	2.745	1772053495.254
67	700.000	0.022	700.000	0.093	2.490	1772053495.535
68	700.000	-0.001	699.999	0.158	2.403	1772053495.820
69	700.000	0.017	700.000	0.167	2.739	1772053496.079
70	700.000	0.000	700.002	0.178	2.623	1772053496.303
71	700.000	0.028	700.000	0.120	2.831	1772053496.594
72	700.000	-0.022	699.998	0.060	1.792	1772053496.826
73	700.000	0.032	699.999	0.100	2.238	1772053497.110
74	700.000	0.047	699.997	0.148	2.385	1772053497.411
75	700.000	0.009	700.000	0.128	2.331	1772053497.656
76	700.000	0.016	700.005	0.093	2.147	1772053497.930
77	700.000	0.017	700.001	0.108	2.550	1772053498.186
78	700.000	0.021	700.001	0.128	2.814	1772053498.489
79	700.000	0.021	700.000	0.151	2.228	1772053498.734
80	700.000	0.012	700.001	0.116	2.381	1772053498.997
81	700.000	-0.002	700.000	0.128	2.576	1772053499.290
82	700.000	0.001	700.003	0.146	2.683	1772053499.550
83	700.000	0.028	700.001	0.106	2.446	1772053499.781
84	700.000	-0.005	700.002	0.126	2.706	1772053500.029
85	700.000	-0.002	700.001	0.163	2.643	1772053500.279
86	700.000	-0.014	700.002	0.154	2.220	1772053500.529
87	700.000	0.020	699.999	0.137	2.769	1772053500.796
88	700.000	0.017	700.002	0.124	2.020	1772053501.036
89	700.000	0.011	700.000	0.092	2.571	1772053501.296
90	700.000	-0.018	700.002	0.150	2.106	1772053501.526
91	700.000	0.012	700.002	0.097	2.497	1772053501.797
92	700.000	-0.038	699.998	0.145	2.587	1772053502.041
93	700.000	-0.013	700.000	0.122	2.411	1772053502.294
94	700.000	0.005	700.002	0.110	2.070	1772053502.541
95	700.000	0.028	700.000	0.133	2.532	1772053502.768
96	700.000	-0.062	700.000	0.102	2.099	1772053503.033
97	700.000	0.013	699.997	0.137	1.972	1772053503.275
98	700.000	0.015	700.001	0.085	2.594	1772053503.538
99	700.000	0.010	699.997	0.106	2.964	1772053503.793
100	700.000	0.013	700.000	0.120	2.670	1772053504.039
101	700.000	-0.026	699.999	0.109	2.456	1772053504.290
102	700.000	0.023	700.004	0.164	2.311	1772053504.522
103	700.000	-0.011	700.000	0.140	2.620	1772053504.777
104	700.000	0.035	700.000	0.053	2.541	1772053505.030
105	700.000	0.020	700.000	0.124	2.177	1772053505.284
106	700.000	0.001	700.000	0.183	2.452	1772053505.547
107	700.000	-0.032	699.999	0.135	2.573	1772053505.802
108	700.000	0.009	699.999	0.138	2.340	1772053506.062
109	700.000	-0.020	700.000	0.119	2.299	1772053506.313
110	700.000	0.031	699.996	0.058	2.509	1772053506.573
111	700.000	0.011	699.999	0.056	2.814	1772053506.886
112	700.000	0.041	699.999	0.122	1.721	1772053507.109
113	700.000	0.003	699.999	0.153	2.478	1772053507.368
114	700.000	0.032	699.998	0.116	1.666	1772053507.612
115	700.000	-0.025	700.001	0.098	2.438	1772053507.875
116	700.000	-0.027	700.002	0.121	2.979	1772053508.113
117	700.000	-0.024	700.000	0.158	2.150	1772053508.350
118	700.000	0.012	699.999	0.135	2.564	1772053508.642
119	700.000	-0.017	700.002	0.125	2.048	1772053508.937
120	700.000	-0.021	700.001	0.169	2.262	1772053509.229
121	700.000	-0.005	699.998	0.136	3.045	1772053509.509
122	700.000	-0.003	700.000	0.122	2.348	1772053509.816
123	700.000	-0.029	700.002	0.162	2.529	1772053510.100
124	700.000	-0.018	700.000	0.079	2.243	1772053510.374
125	700.000	0.023	699.998	0.193	2.372	1772053510.605
126	700.000	-0.004	700.001	0.167	2.422	1772053510.870
127	700.000	0.053	699.997	0.131	2.194	1772053511.110
128	700.000	-0.007	700.002	0.160	2.692	1772053511.370
129	700.000	0.035	699.999	0.155	2.660	1772053511.622
130	700.000	-0.009	699.997	0.144	2.729	1772053511.900
131	700.000	-0.038	700.002	0.136	2.580	1772053512.157
132	700.000	0.018	700.001	0.162	2.269	1772053512.453
133	700.000	-0.007	699.997	0.090	2.042	1772053512.767
134	700.000	-0.062	700.001	0.127	1.416	1772053513.026
135	700.000	-0.010	699.999	0.137	1.859	1772053513.266
136	700.000	0.021	700.003	0.163	2.497	1772053513.532
137	700.000	-0.018	700.000	0.156	2.779	1772053513.766
138	700.000	0.004	700.002	0.141	1.876	1772053514.020
139	700.000	-0.027	699.999	0.112	2.489	1772053514.282
140	700.000	0.007	700.000	0.188	2.242	1772053514.587
141	700.000	-0.007	700.002	0.087	2.324	1772053514.845
142	700.000	-0.010	700.001	0.113	2.576	1772053515.098
143	700.000	0.031	699.998	0.097	2.168	1772053515.326
144	700.000	-0.011	699.997	0.097	2.309	1772053515.617
145	700.000	0.025	700.000	0.138	2.579	1772053515.845
146	700.000	-0.004	700.001	0.143	2.290	1772053516.146
147	700.000	0.015	700.001	0.098	1.825	1772053516.390
148	700.000	0.001	699.998	0.144	2.623	1772053516.689
149	700.000	-0.039	699.997	0.057	2.546	1772053516.935
150	700.000	0.018	700.000	0.109	1.705	1772053517.190
151	700.000	0.007	699.998	0.139	2.562	1772053517.448
152	700.000	0.015	700.003	0.145	1.918	1772053517.709
153	700.000	0.010	700.000	0.094	2.795	1772053517.945
154	700.000	-0.023	700.003	0.126	2.561	1772053518.199
155	700.000	-0.050	699.999	0.199	2.297	1772053518.457
156	700.000	-0.027	699.999	0.148	2.357	1772053518.709
157	700.000	-0.009	700.000	0.152	2.098	1772053519.002
158	700.000	0.010	699.999	0.102	2.306	1772053519.326
159	700.000	-0.016	700.001	0.192	2.535	1772053519.547
160	700.000	0.011	700.003	0.109	1.793	1772053519.800
161	700.000	-0.016	700.001	0.106	1.826	1772053520.053
162	700.000	0.002	700.000	0.139	2.122	1772053520.318
163	700.000	0.021	700.001	0.103	2.348	1772053520.537
164	700.000	0.011	700.002	0.137	2.383	1772053520.810
165	700.000	0.038	700.003	0.152	2.086	1772053521.057
166	700.000	-0.012	699.999	0.127	2.511	1772053521.308
167	700.000	0.002	700.000	0.128	1.963	1772053521.565
168	700.000	0.014	699.998	0.178	1.695	1772053521.797
169	700.000	0.000	700.001	0.113	2.461	1772053522.087
170	700.000	-0.046	700.002	0.126	1.923	1772053522.385
171	700.000	0.023	699.999	0.219	1.923	1772053522.634
172	700.000	-0.009	700.000	0.124	2.727	1772053522.865
173	700.000	0.024	699.999	0.116	2.129	1772053523.144
174	700.000	-0.014	699.998	0.163	2.185	1772053523.448
175	700.000	-0.005	699.999	0.115	1.955	1772053523.729
176	700.000	0.008	699.998	0.193	2.436	1772053523.990
177	700.000	0.010	700.000	0.095	2.042	1772053524.248
178	700.000	0.005	700.000	0.144	2.835	1772053524.505
179	700.000	0.019	700.000	0.121	1.929	1772053524.734
180	700.000	-0.003	699.999	0.148	2.238	1772053525.010
181	700.000	0.024	700.000	0.141	1.729	1772053525.257
182	700.000	-0.042	700.000	0.077	2.066	1772053525.567
183	700.000	-0.025	699.999	0.169	1.741	1772053525.804
184	700.000	-0.024	699.997	0.223	2.221	1772053526.069
185	700.000	-0.005	699.997	0.141	2.375	1772053526.316
186	700.000	0.007	699.997	0.217	2.825	1772053526.569
187	700.000	0.034	700.000	0.131	2.226	1772053526.808
188	700.000	-0.008	699.999	0.108	2.564	1772053527.066
189	700.000	-0.017	700.001	0.126	1.937	1772053527.312
190	700.000	0.014	699.998	0.083	1.435	1772053527.547
191	700.000	0.007	700.003	0.089	1.833	1772053527.833
192	700.000	0.007	699.999	0.118	2.186	1772053528.071
193	700.000	0.005	700.000	0.164	2.834	1772053528.305
194	700.000	-0.014	700.001	0.120	2.255	1772053528.573
195	700.000	0.009	700.001	0.091	1.804	1772053528.841
196	700.000	0.006	700.001	0.122	2.214	1772053529.131
197	700.000	0.016	700.000	0.186	2.670	1772053529.389
198	700.000	0.004	700.001	0.134	2.572	1772053529.633
199	700.000	0.025	699.999	0.154	2.329	1772053529.871
200	700.000	-0.003	699.998	0.117	2.625	1772053530.155
201	700.000	0.044	699.999	0.146	2.064	1772053530.444
202	700.000	-0.031	699.998	0.143	2.120	1772053530.663
203	700.000	0.013	699.999	0.149	2.717	1772053530.940
204	700.000	0.000	700.000	0.108	2.519	1772053531.185
205	700.000	0.011	699.996	0.140	2.438	1772053531.460
206	700.000	0.019	699.999	0.125	2.007	1772053531.736
207	700.000	-0.032	700.001	0.167	2.565	1772053532.020
208	700.000	-0.026	700.003	0.089	2.237	1772053532.321
209	700.000	0.013	700.002	0.163	2.344	1772053532.584
210	700.000	-0.026	700.000	0.111	2.585	1772053532.828
211	700.000	0.036	700.000	0.136	2.053	1772053533.087
212	700.000	0.017	700.000	0.160	2.234	1772053533.390
213	700.000	-0.017	700.001	0.126	2.703	1772053533.638
214	700.000	0.033	699.999	0.171	2.328	1772053533.890
215	700.000	-0.022	700.001	0.173	1.793	1772053534.146
216	700.000	0.001	700.000	0.144	2.562	1772053534.444
217	700.000	-0.005	700.001	0.097	2.143	1772053534.694
218	700.000	0.003	700.000	0.137	2.251	1772053534.957
219	700.000	0.027	699.999	0.153	1.838	1772053535.231
220	700.000	0.040	700.002	0.127	2.153	1772053535.506
221	700.000	0.028	699.999	0.209	1.311	1772053535.733
222	700.000	-0.009	700.003	0.157	2.649	1772053536.006
223	700.000	0.003	699.997	0.129	2.278	1772053536.269
224	700.000	-0.000	699.997	0.114	2.326	1772053536.584
225	700.000	0.005	699.999	0.184	2.344	1772053536.877
226	700.000	0.006	700.000	0.141	2.090	1772053537.116
227	700.000	0.012	700.001	0.122	2.618	1772053537.391
228	700.000	0.006	700.004	0.100	1.317	1772053537.655
229	700.000	-0.013	699.997	0.138	1.949	1772053537.961
230	700.000	-0.028	700.000	0.210	2.561	1772053538.279
231	700.000	0.012	699.998	0.112	1.814	1772053538.558
232	700.000	-0.007	699.998	0.170	2.209	1772053538.820
233	700.000	0.015	699.999	0.175	2.346	1772053539.054
234	700.000	0.004	700.005	0.142	1.992	1772053539.320
235	700.000	0.033	700.002	0.097	2.473	1772053539.570
236	700.000	0.019	699.997	0.060	2.264	1772053539.825
237	700.000	0.038	699.998	0.091	2.488	1772053540.070
238	700.000	0.010	700.002	0.184	2.051	1772053540.296
239	700.000	0.005	699.997	0.164	2.087	1772053540.573
240	700.000	-0.027	700.001	0.142	2.350	1772053540.809
241	700.000	0.021	700.003	0.131	2.512	1772053541.088
242	700.000	-0.021	699.999	0.132	1.936	1772053541.381
243	700.000	-0.014	700.003	0.125	2.107	1772053541.627
244	700.000	-0.013	700.001	0.116	2.537	1772053541.883
245	700.000	0.023	700.000	0.116	2.493	1772053542.201
246	700.000	-0.004	699.998	0.067	2.527	1772053542.507
247	700.000	0.026	700.000	0.072	1.969	1772053542.729
248	700.000	0.037	700.000	0.198	2.798	1772053543.008
249	700.000	-0.020	700.001	0.093	2.602	1772053543.228
250	700.000	-0.001	699.997	0.102	2.879	1772053543.511
251	700.000	0.000	700.001	0.082	1.541	1772053543.770
252	700.000	-0.023	699.999	0.074	2.351	1772053544.076
253	700.000	0.011	700.005	0.153	2.470	1772053544.308
254	700.000	-0.018	699.998	0.157	2.486	1772053544.622
255	700.000	0.001	699.998	0.145	2.529	1772053544.860
256	700.000	-0.018	700.000	0.096	1.902	1772053545.113
257	700.000	0.022	700.001	0.117	2.682	1772053545.363
258	700.000	0.029	700.002	0.140	2.276	1772053545.616
259	700.000	-0.005	699.999	0.140	2.629	1772053545.857
260	700.000	-0.016	700.000	0.166	2.173	1772053546.152
261	700.000	0.022	700.001	0.167	2.663	1772053546.387
262	700.000	0.041	699.997	0.167	2.208	1772053546.667
263	700.000	-0.009	700.000	0.177	2.136	1772053546.891
264	700.000	-0.016	700.001	0.183	1.521	1772053547.164
265	700.000	-0.007	700.000	0.083	2.244	1772053547.409
266	700.000	-0.021	700.001	0.108	2.603	1772053547.658
267	700.000	-0.017	699.998	0.114	2.241	1772053547.889
268	700.000	-0.054	700.002	0.107	2.008	1772053548.132
269	700.000	-0.025	700.000	0.163	2.043	1772053548.416
270	700.000	0.001	699.997	0.089	2.139	1772053548.652
271	700.000	0.031	700.001	0.115	1.952	1772053548.913
272	700.000	0.023	699.999	0.138	2.155	1772053549.172
273	700.000	-0.026	699.998	0.150	2.312	1772053549.419
274	700.000	0.006	700.000	0.129	2.439	1772053549.679
275	700.000	0.017	699.999	0.143	2.369	1772053549.989
276	700.000	-0.000	699.998	0.120	2.233	1772053550.240
277	700.000	0.000	699.999	0.119	2.778	1772053550.553
278	700.000	-0.013	700.003	0.164	2.249	1772053550.852
279	700.000	0.011	699.999	0.133	2.533	1772053551.083
280	700.000	0.016	700.000	0.143	2.070	1772053551.354
281	700.000	-0.032	700.003	0.151	2.506	1772053551.592
282	700.000	0.007	699.999	0.084	2.025	1772053551.858
283	700.000	-0.025	700.001	0.096	2.129	1772053552.167
284	700.000	-0.005	699.999	0.133	1.954	1772053552.453
285	700.000	0.008	700.002	0.142	2.028	1772053552.715
286	700.000	-0.035	699.998	0.092	2.475	1772053553.001
287	700.000	-0.032	700.000	0.174	2.391	1772053553.301
288	700.000	-0.013	700.002	0.176	2.126	1772053553.531
289	700.000	-0.003	700.003	0.137	2.093	1772053553.797
290	700.000	-0.009	700.000	0.178	2.021	1772053554.050
291	700.000	0.035	700.002	0.138	2.841	1772053554.354
292	700.000	-0.037	699.997	0.144	2.513	1772053554.634
293	700.000	-0.012	700.000	0.185	2.401	1772053554.890
294	700.000	-0.018	700.002	0.109	2.722	1772053555.214
295	700.000	-0.011	700.000	0.163	2.458	1772053555.512
296	700.000	0.042	700.001	0.100	2.680	1772053555.796
297	700.000	-0.016	700.000	0.096	2.356	1772053556.077
298	700.000	-0.043	699.998	0.089	2.964	1772053556.309
299	700.000	0.027	699.997	0.124	2.488	1772053556.586
300	700.000	0.008	700.000	0.117	2.300	1772053556.913
301	700.000	0.010	700.001	0.155	2.816	1772053557.199
302	700.000	0.003	699.999	0.124	2.243	1772053557.454
303	700.000	0.006	700.004	0.175	2.637	1772053557.682
304	700.000	-0.035	699.998	0.126	2.437	1772053557.952
305	700.000	-0.002	700.000	0.118	2.105	1772053558.198
306	700.000	-0.016	700.001	0.170	2.413	1772053558.451
307	700.000	-0.002	699.999	0.035	1.283	1772053558.709
308	700.000	-0.011	699.996	0.140	2.581	1772053559.009
309	700.000	0.005	699.998	0.076	2.312	1772053559.243
310	700.000	-0.017	700.002	0.124	2.681	1772053559.518
311	700.000	-0.049	699.997	0.149	2.139	1772053559.754
312	700.000	0.003	700.000	0.084	2.512	1772053559.994
313	700.000	-0.001	700.002	0.146	1.967	1772053560.243
314	700.000	0.037	699.998	0.129	1.333	1772053560.502
315	700.000	-0.024	700.001	0.180	2.752	1772053560.757
316	700.000	0.021	699.999	0.149	2.144	1772053561.022
317	700.000	-0.004	700.000	0.091	2.137	1772053561.313
318	700.000	0.027	700.000	0.140	2.633	1772053561.550
319	700.000	0.032	700.000	0.090	1.880	1772053561.814
320	700.000	-0.013	700.002	0.117	2.710	1772053562.061
321	700.000	0.016	699.999	0.166	2.793	1772053562.335
322	700.000	0.004	700.000	0.112	2.658	1772053562.566
323	700.000	-0.044	700.002	0.119	2.297	1772053562.795
324	700.000	-0.022	700.001	0.198	2.789	1772053563.073
325	700.000	0.013	699.999	0.218	2.177	1772053563.301
326	700.000	-0.036	699.998	0.130	2.502	1772053563.571
327	700.000	-0.021	700.000	0.124	2.290	1772053563.797
328	700.000	0.042	700.001	0.158	2.531	1772053564.080
329	700.000	-0.020	699.995	0.089	2.839	1772053564.301
330	700.000	0.004	699.999	0.118	2.451	1772053564.538
331	700.000	-0.007	700.002	0.141	2.291	1772053564.795
332	700.000	-0.016	700.000	0.126	2.304	1772053565.045
333	700.000	-0.027	699.997	0.105	2.544	1772053565.326
334	700.000	-0.009	700.001	0.149	2.136	1772053565.624
335	700.000	0.026	700.000	0.120	2.682	1772053565.873
336	700.000	-0.013	700.001	0.115	2.227	1772053566.091
337	700.000	0.003	700.000	0.136	1.963	1772053566.361
338	700.000	-0.003	700.002	0.120	2.547	1772053566.613
339	700.000	-0.039	700.001	0.107	3.066	1772053566.873
340	700.000	-0.003	699.999	0.121	1.975	1772053567.121
341	700.000	0.009	700.002	0.117	2.012	1772053567.397
342	700.000	-0.000	699.999	0.149	2.451	1772053567.651
343	700.000	0.026	700.000	0.167	2.695	1772053567.972
344	700.000	0.004	699.998	0.097	1.906	1772053568.258
345	700.000	0.018	700.000	0.133	2.503	1772053568.508
346	700.000	0.003	699.998	0.133	2.472	1772053568.768
347	700.000	0.024	700.003	0.139	2.390	1772053569.050
348	700.000	-0.006	699.999	0.138	2.876	1772053569.346
349	700.000	-0.010	700.002	0.187	2.983	1772053569.581
350	700.000	-0.000	700.000	0.085	2.356	1772053569.853
351	700.000	0.056	699.999	0.128	2.140	1772053570.106
352	700.000	0.006	699.999	0.125	2.484	1772053570.406
353	700.000	0.001	700.003	0.176	2.595	1772053570.638
354	700.000	-0.028	699.996	0.108	1.844	1772053570.901
355	700.000	-0.017	699.999	0.139	1.553	1772053571.160
356	700.000	-0.017	699.996	0.133	2.227	1772053571.493
357	700.000	-0.000	700.000	0.122	2.239	1772053571.783
358	700.000	-0.020	699.999	0.132	2.606	1772053572.031
359	700.000	0.025	699.998	0.165	2.470	1772053572.302
360	700.000	0.001	700.001	0.162	2.135	1772053572.521
361	700.000	0.009	700.000	0.128	3.060	1772053572.810
362	700.000	-0.010	699.997	0.113	2.848	1772053573.097
363	700.000	0.007	700.000	0.083	2.567	1772053573.421
364	700.000	-0.003	699.997	0.174	1.914	1772053573.660
365	700.000	0.000	700.003	0.146	2.040	1772053573.892
366	700.000	0.004	700.000	0.140	2.546	1772053574.155
367	700.000	0.000	700.003	0.159	1.971	1772053574.419
368	700.000	0.010	700.001	0.126	2.690	1772053574.636
369	700.000	0.013	700.002	0.154	2.699	1772053574.920
370	700.000	-0.026	699.998	0.113	2.667	1772053575.176
371	700.000	0.008	699.998	0.121	2.478	1772053575.485
372	700.000	0.050	700.002	0.206	2.942	1772053575.811
373	700.000	-0.018	700.001	0.134	2.361	1772053576.107
374	700.000	-0.019	699.999	0.166	1.949	1772053576.399
375	700.000	-0.003	700.001	0.148	2.888	1772053576.682
376	700.000	0.009	700.000	0.080	2.188	1772053576.908
377	700.000	0.038	699.999	0.126	2.195	1772053577.191
378	700.000	-0.025	699.998	0.188	2.767	1772053577.432
379	700.000	-0.001	700.003	0.121	2.124	1772053577.679
380	700.000	0.038	700.002	0.101	2.439	1772053577.964
381	700.000	0.019	700.001	0.124	2.193	1772053578.262
382	700.000	-0.008	700.000	0.138	2.552	1772053578.492
383	700.000	-0.010	700.002	0.101	2.068	1772053578.789
384	700.000	-0.000	700.000	0.171	1.995	1772053579.063
385	700.000	-0.001	700.002	0.133	1.956	1772053579.350
386	700.000	-0.025	699.998	0.147	2.130	1772053579.608
387	700.000	-0.016	700.000	0.065	2.055	1772053579.867
388	700.000	0.025	700.008	0.142	2.233	1772053580.181
389	700.000	-0.030	699.998	0.174	2.496	1772053580.472
390	700.000	-0.022	700.000	0.115	2.874	1772053580.724
391	700.000	-0.002	700.002	0.191	2.529	1772053580.964
392	700.000	-0.052	700.003	0.125	2.364	1772053581.227
393	700.000	-0.000	700.001	0.127	2.825	1772053581.445
394	700.000	0.029	700.003	0.117	2.585	1772053581.724
395	700.000	-0.002	699.999	0.142	2.300	1772053581.977
396	700.000	-0.010	699.997	0.153	2.303	1772053582.219
397	700.000	0.006	699.999	0.174	2.356	1772053582.460
398	700.000	-0.037	700.003	0.123	2.847	1772053582.708
399	700.000	-0.031	699.998	0.111	2.870	1772053582.970
400	700.000	-0.023	700.001	0.113	1.854	1772053583.204
401	700.000	-0.040	700.001	0.082	1.722	1772053583.457
402	700.000	0.002	699.999	0.158	2.546	1772053583.715
403	700.000	0.021	700.001	0.138	1.820	1772053583.986
404	700.000	0.006	700.000	0.057	2.327	1772053584.229
405	700.000	0.037	699.997	0.187	2.483	1772053584.495
406	700.000	-0.021	700.003	0.166	2.702	1772053584.766
407	700.000	0.004	700.001	0.171	2.383	1772053585.042
408	700.000	-0.021	700.002	0.172	2.209	1772053585.279
409	700.000	0.016	700.000	0.164	2.406	1772053585.547
410	700.000	0.016	700.001	0.101	2.150	1772053585.803
411	700.000	-0.004	699.998	0.138	2.335	1772053586.060
412	700.000	-0.045	700.002	0.082	2.309	1772053586.301
413	700.000	0.010	700.000	0.112	2.289	1772053586.570
414	700.000	-0.002	699.996	0.088	1.942	1772053586.808
415	700.000	-0.004	699.999	0.066	2.610	1772053587.041
416	700.000	-0.015	699.998	0.118	2.261	1772053587.313
417	700.000	-0.008	700.000	0.064	2.321	1772053587.557
418	700.000	0.026	699.999	0.120	1.906	1772053587.851
419	700.000	-0.008	700.002	0.166	2.260	1772053588.156
420	700.000	0.010	700.003	0.174	1.914	1772053588.403
421	700.000	-0.012	700.000	0.131	2.284	1772053588.635
422	700.000	-0.006	699.997	0.171	2.430	1772053588.905
423	700.000	0.015	700.000	0.109	3.125	1772053589.152
424	700.000	0.031	700.000	0.184	1.923	1772053589.448
425	700.000	0.007	699.999	0.127	2.257	1772053589.673
426	700.000	0.009	700.000	0.129	1.876	1772053589.960
427	700.000	0.056	700.002	0.124	2.298	1772053590.190
428	700.000	-0.025	699.998	0.123	2.834	1772053590.481
429	700.000	0.004	700.000	0.147	2.773	1772053590.776
430	700.000	0.009	699.998	0.182	2.727	1772053591.033
431	700.000	0.010	700.002	0.082	2.374	1772053591.260
432	700.000	0.003	700.000	0.144	2.137	1772053591.524
433	700.000	-0.049	699.999	0.155	2.214	1772053591.770
434	700.000	0.060	699.999	0.131	2.143	1772053592.027
435	700.000	-0.024	699.997	0.193	2.479	1772053592.252
436	700.000	0.004	700.002	0.151	2.544	1772053592.493
437	700.000	-0.016	699.997	0.098	2.153	1772053592.765
438	700.000	-0.004	700.002	0.178	2.088	1772053593.006
439	700.000	-0.010	700.001	0.139	2.426	1772053593.297
440	700.000	-0.010	700.000	0.121	2.497	1772053593.593
441	700.000	0.007	700.001	0.165	2.962	1772053593.853
442	700.000	-0.009	699.999	0.142	2.658	1772053594.160
443	700.000	-0.042	699.996	0.135	2.494	1772053594.388
444	700.000	-0.021	700.002	0.133	2.218	1772053594.651
445	700.000	-0.011	699.998	0.133	2.196	1772053594.906
446	700.000	-0.025	700.000	0.110	2.068	1772053595.150
447	700.000	0.021	700.000	0.131	1.975	1772053595.385
448	700.000	0.004	700.000	0.103	2.266	1772053595.656
449	700.000	-0.009	700.001	0.135	2.267	1772053595.917
450	700.000	0.005	699.998	0.095	2.763	1772053596.202
451	700.000	-0.027	700.001	0.048	2.725	1772053596.462
452	700.000	-0.013	700.003	0.139	2.008	1772053596.693
453	700.000	-0.006	699.999	0.179	2.310	1772053596.948
454	700.000	0.001	700.002	0.168	2.320	1772053597.186
455	700.000	0.014	700.000	0.173	2.505	1772053597.457
456	700.000	-0.006	700.002	0.139	2.367	1772053597.696
457	700.000	0.013	700.001	0.159	2.484	1772053597.963
458	700.000	0.007	700.001	0.101	2.137	1772053598.216
459	700.000	-0.001	699.999	0.074	2.159	1772053598.452
460	700.000	-0.001	699.999	0.104	2.746	1772053598.716
461	700.000	0.002	700.002	0.091	2.528	1772053598.984
462	700.000	0.013	699.999	0.166	2.295	1772053599.245
463	700.000	0.002	700.000	0.199	2.112	1772053599.542
464	700.000	0.013	700.002	0.159	3.185	1772053599.782
465	700.000	0.024	700.001	0.123	2.065	1772053600.038
466	700.000	0.005	700.000	0.109	2.128	1772053600.287
467	700.000	0.008	699.999	0.144	1.987	1772053600.526
468	700.000	-0.017	700.000	0.137	2.344	1772053600.801
469	700.000	0.005	700.001	0.104	1.989	1772053601.018
470	700.000	0.007	699.999	0.137	2.321	1772053601.294
471	700.000	-0.001	700.003	0.089	2.090	1772053601.554
472	700.000	0.019	700.001	0.101	2.156	1772053601.815
473	700.000	0.028	699.999	0.137	2.238	1772053602.049
474	700.000	0.011	699.996	0.121	2.219	1772053602.310
475	700.000	-0.004	699.998	0.127	1.893	1772053602.561
476	700.000	-0.025	699.998	0.070	4.197	1772053602.777
477	700.000	-0.013	699.999	0.104	3.707	1772053603.048
478	700.000	-0.006	699.998	0.078	3.355	1772053603.296
479	700.000	-0.019	700.000	0.035	0.130	1772053603.523
480	700.000	0.039	700.000	0.095	3.963	1772053603.796
481	700.000	0.003	699.997	0.049	4.378	1772053604.044
482	700.000	-0.014	699.999	0.058	3.617	1772053604.299
483	700.000	0.015	699.999	0.136	3.828	1772053604.530
484	700.000	-0.013	699.998	0.065	3.685	1772053604.809
485	700.000	0.008	699.997	0.090	4.030	1772053605.050
486	700.000	0.002	700.001	0.121	3.177	1772053605.301
487	700.000	0.019	699.999	0.109	3.595	1772053605.552
488	700.000	-0.004	700.005	0.105	3.455	1772053605.805
489	700.000	-0.021	700.000	0.106	3.993	1772053606.063
490	700.000	0.001	700.000	0.023	3.846	1772053606.383
491	700.000	0.025	699.998	0.088	3.886	1772053606.684
492	700.000	-0.018	700.002	0.059	4.632	1772053606.913
493	700.000	-0.004	700.003	0.113	4.302	1772053607.178
494	700.000	0.028	700.002	0.116	3.485	1772053607.431
495	700.000	-0.008	699.999	0.145	4.159	1772053607.679
496	700.000	0.025	699.996	0.072	4.580	1772053607.914
497	700.000	-0.001	700.001	0.041	2.995	1772053608.155
498	700.000	-0.007	699.997	0.089	3.669	1772053608.422
499	700.000	-0.045	700.001	0.010	2.005	1772053608.697
500	700.000	-0.001	700.001	0.070	4.066	1772053609.004
501	700.000	-0.022	699.997	0.096	2.941	1772053609.251
502	700.000	-0.032	700.002	0.046	4.747	1772053609.537
503	700.000	0.000	699.999	0.051	3.735	1772053609.817
504	700.000	0.027	700.005	0.059	0.963	1772053610.116
505	700.000	0.001	700.000	0.032	3.275	1772053610.363
506	700.000	0.014	700.001	0.118	3.468	1772053610.644
507	700.000	-0.003	700.001	0.079	3.999	1772053610.941
508	700.000	-0.025	700.001	0.100	4.105	1772053611.258
509	700.000	-0.001	699.999	0.080	4.114	1772053611.571
510	700.000	0.019	700.003	0.047	3.512	1772053611.862
511	700.000	-0.017	700.000	0.097	4.361	1772053612.107
512	700.000	-0.034	700.000	0.089	3.592	1772053612.346
513	700.000	-0.005	700.001	0.093	3.526	1772053612.617
514	700.000	0.015	700.001	0.220	3.457	1772053612.835
515	700.000	-0.020	699.998	0.061	3.792	1772053613.119
516	700.000	0.030	699.996	0.101	3.746	1772053613.358
517	700.000	-0.040	700.000	0.044	4.895	1772053613.612
518	700.000	0.000	700.001	0.098	2.951	1772053613.880
519	700.000	-0.005	699.998	0.047	3.384	1772053614.107
520	700.000	0.012	700.002	0.056	4.785	1772053614.362
521	700.000	0.003	699.997	0.098	3.618	1772053614.629
522	700.000	0.047	699.999	0.094	3.997	1772053614.875
523	700.000	0.019	700.001	0.059	3.735	1772053615.104
524	700.000	-0.006	700.000	0.044	0.042	1772053615.375
525	700.000	0.006	700.001	0.075	3.415	1772053615.602
526	700.000	-0.009	700.002	0.056	5.285	1772053615.877
527	700.000	0.016	700.001	0.086	3.464	1772053616.158
528	700.000	0.008	700.000	0.078	3.936	1772053616.421
529	700.000	0.005	700.002	0.016	6.242	1772053616.667
530	700.000	0.004	700.004	0.044	2.522	1772053616.932
531	700.000	-0.020	699.998	0.090	3.306	1772053617.188
532	700.000	-0.004	699.999	0.096	2.983	1772053617.436
533	700.000	0.027	699.997	0.103	3.629	1772053617.683
534	700.000	0.027	700.000	0.004	5.580	1772053617.912
535	700.000	-0.031	699.999	0.094	3.644	1772053618.185
536	700.000	0.014	699.999	0.049	3.496	1772053618.415
537	700.000	0.052	700.003	0.023	2.245	1772053618.678
538	700.000	0.018	700.000	0.055	3.853	1772053618.944
539	700.000	0.013	699.999	0.132	3.619	1772053619.239
540	700.000	-0.014	700.001	0.006	5.396	1772053619.475
541	700.000	0.035	700.003	0.044	3.705	1772053619.739
542	700.000	-0.003	699.999	0.018	0.077	1772053619.982
543	700.000	0.006	700.002	0.033	4.997	1772053620.247
544	700.000	-0.000	700.001	0.027	1.726	1772053620.496
545	700.000	0.019	700.001	0.068	2.707	1772053620.745
546	700.000	0.015	700.001	0.038	0.269	1772053620.991
547	700.000	-0.024	700.000	0.041	3.845	1772053621.225
548	700.000	-0.004	700.000	0.047	1.303	1772053621.493
549	700.000	-0.011	699.999	0.151	3.906	1772053621.728
550	700.000	0.022	699.999	0.081	4.929	1772053621.993
551	700.000	0.036	699.995	0.038	3.356	1772053622.239
552	700.000	-0.002	699.998	0.082	5.002	1772053622.486
553	700.000	0.012	700.003	0.128	5.252	1772053622.753
554	700.000	0.016	699.999	0.122	0.146	1772053623.053
555	700.000	-0.017	699.998	0.130	0.502	1772053623.309
556	700.000	-0.007	700.002	0.101	5.731	1772053623.552
557	700.000	-0.018	700.002	0.182	5.656	1772053623.810
558	700.000	0.038	700.003	0.023	5.897	1772053624.056
559	700.000	0.007	700.000	0.166	0.122	1772053624.324
560	700.000	-0.024	700.000	0.097	0.477	1772053624.629
561	700.000	0.037	700.001	0.112	0.355	1772053624.943
562	700.000	-0.003	700.001	0.088	5.612	1772053625.225
563	700.000	-0.048	700.001	0.131	3.977	1772053625.480
564	700.000	-0.013	700.000	0.184	1.571	1772053625.725
565	700.000	0.056	700.000	0.170	4.931	1772053625.984
566	700.000	-0.031	699.995	0.020	4.099	1772053626.254
567	700.000	-0.016	700.003	0.097	1.934	1772053626.496
568	700.000	0.019	700.001	0.144	4.471	1772053626.738
569	700.000	-0.013	699.998	0.084	2.986	1772053626.996
570	700.000	0.001	699.999	0.069	2.225	1772053627.257
571	700.000	0.031	699.998	0.115	4.954	1772053627.558
572	700.000	-0.006	699.998	0.120	2.644	1772053627.815
573	700.000	-0.048	699.999	0.087	5.884	1772053628.122
574	700.000	-0.013	699.995	0.081	2.826	1772053628.420
575	700.000	-0.011	700.000	0.130	6.217	1772053628.679
576	700.000	0.001	700.002	0.084	5.590	1772053628.958
577	700.000	0.002	700.000	0.148	1.646	1772053629.249
578	700.000	-0.041	700.000	0.125	5.323	1772053629.562
579	700.000	0.015	699.999	0.163	2.548	1772053629.803
580	700.000	-0.011	700.000	0.225	0.860	1772053630.044
581	700.000	-0.002	700.001	0.151	4.571	1772053630.261
582	700.000	-0.026	700.001	0.067	2.550	1772053630.559
583	700.000	-0.010	700.002	0.089	5.401	1772053630.802
584	700.000	0.033	700.001	0.063	4.354	1772053631.053
585	700.000	0.009	700.002	0.124	2.217	1772053631.313
586	700.000	-0.020	699.998	0.154	0.239	1772053631.562
587	700.000	-0.007	699.999	0.104	4.158	1772053631.808
588	700.000	-0.035	700.003	0.107	2.413	1772053632.088
589	700.000	-0.017	700.001	0.118	4.895	1772053632.365
590	700.000	0.021	700.000	0.162	3.048	1772053632.638
591	700.000	-0.015	700.000	0.164	0.198	1772053632.884
592	700.000	0.038	699.999	0.100	4.710	1772053633.132
593	700.000	0.005	700.000	0.078	2.428	1772053633.372
594	700.000	-0.029	699.999	0.083	6.130	1772053633.639
595	700.000	0.008	700.000	0.104	4.799	1772053633.877
596	700.000	0.023	699.998	0.115	2.578	1772053634.120
597	700.000	-0.010	699.999	0.125	0.221	1772053634.368
598	700.000	0.018	700.000	0.092	4.174	1772053634.633
599	700.000	0.003	700.000	0.138	2.055	1772053634.869
600	700.000	-0.001	700.004	0.116	5.100	1772053635.125
601	700.000	0.004	700.001	0.124	3.631	1772053635.356
602	700.000	-0.031	700.000	0.081	1.852	1772053635.628
603	700.000	0.025	699.999	0.124	5.459	1772053635.864
604	700.000	0.013	700.001	0.101	3.021	1772053636.127
605	700.000	0.012	700.001	0.054	1.430	1772053636.381
606	700.000	-0.038	700.000	0.180	5.209	1772053636.628
607	700.000	-0.001	699.999	0.132	2.516	1772053636.883
608	700.000	-0.035	699.999	0.082	0.151	1772053637.115
609	700.000	0.025	700.000	0.149	4.598	1772053637.381
610	700.000	0.001	700.002	0.125	1.574	1772053637.606
611	700.000	-0.015	699.999	0.138	0.910	1772053637.872
612	700.000	0.013	700.003	0.157	4.351	1772053638.124
613	700.000	-0.002	700.005	0.143	2.631	1772053638.345
614	700.000	0.011	700.000	0.101	0.260	1772053638.630
615	700.000	-0.015	699.999	0.113	4.033	1772053638.860
616	700.000	0.004	700.000	0.106	2.026	1772053639.130
617	700.000	-0.000	700.000	0.116	4.591	1772053639.361
618	700.000	0.014	700.000	0.069	3.222	1772053639.643
619	700.000	0.011	699.998	0.147	2.158	1772053639.873
620	700.000	0.007	700.001	0.136	5.406	1772053640.133
621	700.000	-0.046	699.999	0.137	3.378	1772053640.386
622	700.000	0.022	700.000	0.096	1.051	1772053640.639
623	700.000	0.003	699.995	0.101	5.130	1772053640.868
624	700.000	0.009	700.001	0.099	2.344	1772053641.131
625	700.000	0.005	700.001	0.040	1.452	1772053641.387
626	700.000	0.015	700.001	0.071	4.801	1772053641.649
627	700.000	0.028	700.001	0.137	2.697	1772053641.943
628	700.000	-0.022	700.003	0.132	5.733	1772053642.167
629	700.000	-0.014	700.003	0.113	3.948	1772053642.425
630	700.000	0.027	699.998	0.101	1.537	1772053642.681
631	700.000	0.029	699.999	0.088	6.157	1772053642.969
632	700.000	-0.046	699.999	0.089	2.887	1772053643.252
633	700.000	-0.016	700.003	0.090	0.395	1772053643.533
634	700.000	-0.016	700.000	0.180	4.149	1772053643.799
635	700.000	0.036	700.003	0.115	2.136	1772053644.036
636	700.000	0.027	700.001	0.183	0.235	1772053644.297
637	700.000	0.016	699.998	0.154	4.549	1772053644.547
638	700.000	0.013	699.999	0.058	1.922	1772053644.786
639	700.000	0.053	699.996	0.095	5.996	1772053645.035
640	700.000	-0.014	699.998	0.123	3.626	1772053645.295
641	700.000	0.002	700.000	0.096	2.195	1772053645.547
642	700.000	0.009	700.002	0.110	5.577	1772053645.793
643	700.000	0.039	699.998	0.089	3.954	1772053646.019
644	700.000	-0.026	700.002	0.153	1.495	1772053646.294
645	700.000	0.025	699.998	0.096	5.213	1772053646.532
646	700.000	-0.012	699.997	0.095	3.073	1772053646.784
647	700.000	0.004	700.001	0.157	1.099	1772053647.040
648	700.000	-0.027	700.000	0.161	4.893	1772053647.275
649	700.000	-0.011	700.000	0.045	3.797	1772053647.539
650	700.000	-0.011	700.000	0.036	1.381	1772053647.783
651	700.000	-0.030	699.999	0.169	5.398	1772053648.032
652	700.000	-0.003	699.996	0.177	1.712	1772053648.292
653	700.000	0.001	699.999	0.073	6.016	1772053648.547
654	700.000	-0.006	700.000	0.165	4.411	1772053648.815
655	700.000	-0.013	699.999	0.134	1.977	1772053649.098
656	700.000	0.010	699.999	0.148	5.677	1772053649.323
657	700.000	-0.012	700.000	0.063	4.134	1772053649.590
658	700.000	-0.012	699.997	0.139	2.062	1772053649.846
659	700.000	-0.025	699.996	0.174	5.645	1772053650.111
660	700.000	-0.022	699.999	0.070	3.572	1772053650.343
661	700.000	-0.021	699.996	0.228	0.843	1772053650.576
662	700.000	0.036	699.999	0.127	4.812	1772053650.850
663	700.000	-0.010	700.000	0.074	1.438	1772053651.095
664	700.000	-0.002	700.000	0.090	0.713	1772053651.350
665	700.000	0.016	700.003	0.176	4.340	1772053651.583
666	700.000	-0.028	700.000	0.116	2.526	1772053651.853
667	700.000	0.007	700.002	0.048	5.370	1772053652.099
668	700.000	-0.013	699.996	0.090	4.008	1772053652.348
669	700.000	-0.029	700.001	0.066	2.301	1772053652.596
670	700.000	0.019	699.999	0.173	5.952	1772053652.815
671	700.000	0.014	700.001	0.030	4.473	1772053653.098
672	700.000	0.017	700.000	0.097	2.298	1772053653.355
673	700.000	0.001	700.003	0.100	5.185	1772053653.675
674	700.000	0.005	700.001	0.081	1.586	1772053653.980
675	700.000	-0.013	700.002	0.038	5.744	1772053654.209
676	700.000	0.042	700.000	0.120	4.117	1772053654.474
677	700.000	0.018	699.997	0.091	2.116	1772053654.727
678	700.000	-0.001	700.001	0.116	6.026	1772053654.976
679	700.000	-0.005	700.000	0.079	3.095	1772053655.224
680	700.000	-0.016	699.999	0.104	2.463	1772053655.454
681	700.000	-0.003	700.002	0.171	5.196	1772053655.725
682	700.000	0.008	699.999	0.063	2.336	1772053655.971
683	700.000	0.002	700.000	0.125	2.372	1772053656.220
684	700.000	-0.003	700.003	0.130	5.376	1772053656.479
685	700.000	0.027	700.000	0.093	3.049	1772053656.745
686	700.000	0.017	699.999	0.092	1.773	1772053656.984
687	700.000	0.010	700.000	0.042	5.682	1772053657.261
688	700.000	0.002	699.999	0.118	2.462	1772053657.498
689	700.000	-0.032	700.001	0.150	0.696	1772053657.748
690	700.000	-0.023	699.999	0.117	4.496	1772053657.994
691	700.000	0.023	700.002	0.086	2.467	1772053658.224
692	700.000	0.006	700.002	0.108	0.104	1772053658.476
693	700.000	-0.043	700.000	0.225	4.678	1772053658.735
694	700.000	0.046	700.000	0.149	2.153	1772053658.991
695	700.000	0.010	700.001	0.146	6.100	1772053659.232
696	700.000	0.009	699.999	0.095	3.659	1772053659.486
697	700.000	-0.024	700.002	0.159	1.749	1772053659.711
698	700.000	-0.009	700.003	0.119	5.975	1772053659.967
699	700.000	-0.001	699.998	0.107	4.170	1772053660.232
700	700.000	0.007	700.001	0.087	1.995	1772053660.484
701	700.000	0.014	699.998	0.159	5.403	1772053660.748
702	700.000	-0.018	700.000	0.088	2.794	1772053660.981
703	700.000	-0.007	699.998	0.181	0.912	1772053661.251
704	700.000	-0.010	700.000	0.075	4.856	1772053661.502
705	700.000	0.006	700.001	0.073	2.917	1772053661.748
706	700.000	0.027	699.998	0.139	0.333	1772053661.992
707	700.000	0.011	700.003	0.156	4.555	1772053662.226
708	700.000	0.046	699.999	0.134	2.042	1772053662.487
709	700.000	-0.034	699.997	0.095	6.087	1772053662.726
710	700.000	-0.029	700.002	0.189	4.163	1772053662.975
711	700.000	-0.004	699.999	0.100	1.414	1772053663.233
712	700.000	-0.025	700.002	0.124	5.920	1772053663.483
713	700.000	0.015	700.000	0.013	3.489	1772053663.751
714	700.000	-0.012	700.000	0.176	1.838	1772053664.017
715	700.000	0.001	699.999	0.104	5.139	1772053664.298
716	700.000	-0.057	700.000	0.127	3.032	1772053664.565
717	700.000	0.021	699.999	0.026	0.994	1772053664.815
718	700.000	-0.006	699.999	0.070	4.886	1772053665.065
719	700.000	0.017	700.001	0.150	2.090	1772053665.311
720	700.000	-0.007	700.001	0.112	0.309	1772053665.569
721	700.000	0.027	699.999	0.106	3.567	1772053665.807
722	700.000	-0.004	699.997	0.134	2.447	1772053666.041
723	700.000	0.044	700.000	0.133	0.150	1772053666.320
724	700.000	-0.045	699.999	0.146	3.574	1772053666.548
725	700.000	0.024	700.003	0.123	2.308	1772053666.821
726	700.000	-0.034	699.999	0.148	5.500	1772053667.064
727	700.000	-0.030	700.000	0.008	1.205	1772053667.350
728	700.000	0.014	700.002	0.071	1.248	1772053667.632
729	700.000	-0.037	699.997	0.115	4.750	1772053667.868
730	700.000	-0.005	700.000	0.134	3.255	1772053668.124
731	700.000	0.021	700.005	0.045	5.076	1772053668.390
732	700.000	0.017	700.000	0.136	4.804	1772053668.620
733	700.000	-0.020	700.000	0.133	2.383	1772053668.894
734	700.000	-0.013	700.002	0.101	0.097	1772053669.147
735	700.000	0.006	700.000	0.072	4.491	1772053669.444
736	700.000	-0.009	700.001	0.098	1.799	1772053669.691
737	700.000	0.002	699.998	0.144	5.267	1772053669.941
738	700.000	0.025	699.998	0.090	2.745	1772053670.188
739	700.000	0.033	700.001	0.101	1.776	1772053670.436
740	700.000	-0.000	700.001	0.132	4.960	1772053670.674
741	700.000	-0.037	700.003	0.108	3.012	1772053670.935
742	700.000	0.017	700.000	0.121	1.756	1772053671.187
743	700.000	0.026	700.000	0.116	5.231	1772053671.423
744	700.000	-0.016	699.998	0.050	2.413	1772053671.713
745	700.000	-0.027	700.001	0.049	5.772	1772053672.044
746	700.000	-0.003	700.000	0.082	2.619	1772053672.331
747	700.000	0.005	700.001	0.083	2.123	1772053672.590
748	700.000	-0.003	699.999	0.115	5.069	1772053672.889
749	700.000	0.016	700.002	0.131	1.954	1772053673.113
750	700.000	0.002	699.998	0.136	0.131	1772053673.370
751	700.000	0.025	700.003	0.099	4.551	1772053673.638
752	700.000	0.013	700.000	0.166	1.712	1772053673.876
753	700.000	-0.010	700.001	0.093	5.810	1772053674.131
754	700.000	-0.023	700.002	0.057	3.768	1772053674.382
755	700.000	-0.015	699.997	0.148	1.804	1772053674.621
756	700.000	-0.038	699.999	0.164	5.840	1772053674.866
757	700.000	-0.017	700.000	0.138	3.540	1772053675.110
758	700.000	0.052	699.998	0.104	2.613	1772053675.386
759	700.000	0.022	700.002	0.080	5.376	1772053675.619
760	700.000	0.016	699.998	0.137	3.311	1772053675.882
761	700.000	0.012	699.999	0.054	0.896	1772053676.127
762	700.000	0.006	700.001	0.073	5.279	1772053676.383
763	700.000	-0.013	699.997	0.084	2.610	1772053676.643
764	700.000	-0.016	699.999	0.084	1.179	1772053676.899
765	700.000	0.007	699.999	0.069	4.409	1772053677.185
766	700.000	-0.010	700.001	0.112	2.790	1772053677.440
767	700.000	0.003	699.996	0.077	5.907	1772053677.674
768	700.000	-0.014	699.999	0.136	3.823	1772053677.941
769	700.000	-0.025	700.004	0.118	1.958	1772053678.194
770	700.000	0.077	699.998	0.092	5.021	1772053678.444
771	700.000	0.012	699.996	0.129	3.868	1772053678.683
772	700.000	0.003	700.000	0.134	1.007	1772053678.920
773	700.000	-0.048	699.998	0.108	5.507	1772053679.189
774	700.000	0.009	700.002	0.169	3.425	1772053679.430
775	700.000	-0.013	700.001	0.081	1.772	1772053679.695
776	700.000	0.050	700.002	0.108	4.849	1772053679.948
777	700.000	-0.006	700.002	0.174	2.366	1772053680.215
778	700.000	0.006	700.001	0.118	0.145	1772053680.479
779	700.000	-0.031	700.000	0.055	4.622	1772053680.763
780	700.000	0.042	700.002	0.151	2.227	1772053680.989
781	700.000	-0.014	699.999	0.121	5.994	1772053681.274
782	700.000	-0.000	699.998	0.112	3.328	1772053681.536
783	700.000	0.012	700.000	0.169	1.277	1772053681.819
784	700.000	-0.042	700.000	0.104	4.969	1772053682.049
785	700.000	-0.001	699.999	0.134	3.072	1772053682.328
786	700.000	-0.033	700.004	0.085	1.962	1772053682.554
787	700.000	-0.027	699.998	0.169	4.916	1772053682.824
788	700.000	-0.002	699.998	0.124	2.451	1772053683.103
789	700.000	-0.007	699.999	0.132	0.333	1772053683.375
790	700.000	0.009	699.999	0.184	3.658	1772053683.627
791	700.000	0.007	700.001	0.114	1.923	1772053683.883
792	700.000	0.002	700.001	0.103	5.800	1772053684.139
793	700.000	0.003	699.999	0.151	3.435	1772053684.391
794	700.000	0.003	699.998	0.084	1.619	1772053684.630
795	700.000	-0.045	700.003	0.049	5.370	1772053684.855
796	700.000	-0.026	700.002	0.143	3.250	1772053685.131
797	700.000	-0.027	700.000	0.132	2.112	1772053685.360
798	700.000	0.014	699.999	0.067	5.058	1772053685.631
799	700.000	-0.003	700.000	0.080	2.943	1772053685.859
800	700.000	-0.023	700.000	0.135	1.668	1772053686.127
801	700.000	-0.045	700.000	0.133	3.936	1772053686.379
802	700.000	-0.000	700.002	0.088	2.798	1772053686.616
803	700.000	-0.027	700.002	0.063	2.134	1772053686.871
804	700.000	-0.010	700.001	0.090	5.011	1772053687.115
805	700.000	-0.011	700.000	0.147	2.657	1772053687.396
806	700.000	-0.009	700.000	0.108	0.121	1772053687.676
807	700.000	-0.013	700.000	0.109	3.528	1772053687.916
808	700.000	0.017	700.000	0.132	2.406	1772053688.157
809	700.000	0.037	699.996	0.139	5.625	1772053688.426
810	700.000	-0.031	700.002	0.156	3.426	1772053688.664
811	700.000	-0.014	700.000	0.138	1.883	1772053688.923
812	700.000	-0.012	700.001	0.084	6.164	1772053689.163
813	700.000	-0.004	700.000	0.088	4.235	1772053689.396
814	700.000	0.008	700.000	0.041	1.959	1772053689.666
815	700.000	-0.006	699.998	0.075	5.933	1772053689.895
816	700.000	-0.036	700.001	0.149	2.951	1772053690.143
817	700.000	-0.031	699.998	0.064	1.253	1772053690.400
818	700.000	0.043	700.002	0.083	5.018	1772053690.680
819	700.000	0.026	699.996	0.120	2.087	1772053690.932
820	700.000	0.006	700.000	0.078	0.537	1772053691.237
821	700.000	0.065	699.996	0.165	3.347	1772053691.458
822	700.000	0.002	700.000	0.085	2.262	1772053691.739
823	700.000	-0.017	700.001	0.053	5.313	1772053691.975
824	700.000	-0.032	700.000	0.108	3.364	1772053692.225
825	700.000	-0.006	700.001	0.110	1.365	1772053692.479
826	700.000	0.018	700.000	0.160	5.215	1772053692.714
827	700.000	-0.025	699.999	0.096	3.524	1772053692.975
828	700.000	-0.009	700.000	0.041	1.321	1772053693.212
829	700.000	0.064	700.001	0.124	5.061	1772053693.488
830	700.000	-0.030	699.998	0.149	2.468	1772053693.714
831	700.000	0.005	700.002	0.086	2.019	1772053693.992
832	700.000	0.010	699.998	0.117	4.457	1772053694.247
833	700.000	0.006	700.000	0.142	2.152	1772053694.563
834	700.000	0.031	700.000	0.040	0.116	1772053694.802
835	700.000	-0.023	700.002	0.120	3.339	1772053695.052
836	700.000	0.020	700.003	0.097	3.027	1772053695.300
837	700.000	-0.025	700.000	0.077	5.529	1772053695.554
838	700.000	-0.007	699.998	0.113	2.639	1772053695.814
839	700.000	-0.011	699.999	0.056	2.137	1772053696.103
840	700.000	0.025	700.002	0.173	4.776	1772053696.338
841	700.000	0.026	699.998	0.182	3.620	1772053696.613
842	700.000	0.002	699.999	0.110	0.946	1772053696.852
843	700.000	0.021	699.998	0.117	4.480	1772053697.115
844	700.000	-0.025	700.000	0.143	1.872	1772053697.365
845	700.000	0.031	700.000	0.103	4.990	1772053697.626
846	700.000	0.013	700.003	0.159	3.435	1772053697.872
847	700.000	0.031	700.001	0.103	1.841	1772053698.143
848	700.000	0.010	699.999	0.123	4.991	1772053698.395
849	700.000	-0.005	700.002	0.134	2.772	1772053698.709
850	700.000	-0.017	700.003	0.067	0.862	1772053699.010
851	700.000	-0.010	700.000	0.158	3.862	1772053699.244
852	700.000	-0.018	700.000	0.110	2.201	1772053699.502
853	700.000	-0.037	700.001	0.143	6.242	1772053699.761
854	700.000	0.031	699.999	0.126	4.448	1772053699.993
855	700.000	0.025	699.997	0.164	1.729	1772053700.259
856	700.000	0.027	699.999	0.101	5.467	1772053700.499
857	700.000	0.030	700.000	0.059	2.869	1772053700.771
858	700.000	-0.027	700.000	0.129	1.327	1772053701.045
859	700.000	-0.035	699.998	0.132	4.536	1772053701.329
860	700.000	0.023	699.999	0.111	2.432	1772053701.639
861	700.000	0.030	700.000	0.049	0.429	1772053701.870
862	700.000	0.004	700.002	0.141	3.440	1772053702.123
863	700.000	-0.004	700.001	0.103	2.006	1772053702.382
864	700.000	-0.011	700.003	0.110	0.063	1772053702.615
865	700.000	0.004	700.000	0.095	3.618	1772053702.891
866	700.000	-0.035	699.999	0.157	2.199	1772053703.124
867	700.000	0.012	699.999	0.094	4.756	1772053703.387
868	700.000	-0.033	699.999	0.155	2.752	1772053703.644
869	700.000	-0.028	700.001	0.079	1.179	1772053703.881
870	700.000	-0.009	699.998	0.148	5.380	1772053704.141
871	700.000	0.043	700.002	0.110	2.682	1772053704.367
872	700.000	-0.009	699.999	0.069	1.956	1772053704.650
873	700.000	-0.002	700.001	0.106	4.631	1772053704.948
874	700.000	-0.013	699.998	0.135	2.681	1772053705.197
875	700.000	-0.020	700.000	0.120	0.032	1772053705.443
876	700.000	-0.013	699.998	0.110	3.716	1772053705.703
877	700.000	-0.021	700.001	0.204	1.808	1772053705.940
878	700.000	0.018	699.998	0.123	5.139	1772053706.186
879	700.000	-0.015	700.000	0.090	3.794	1772053706.429
880	700.000	0.021	700.000	0.109	2.762	1772053706.707
881	700.000	0.032	700.002	0.154	5.641	1772053706.987
882	700.000	-0.018	700.001	0.070	2.851	1772053707.254
883	700.000	-0.008	700.000	0.073	1.170	1772053707.513
884	700.000	0.013	700.000	0.130	4.911	1772053707.752
885	700.000	0.004	700.000	0.141	2.261	1772053708.005
886	700.000	0.023	700.000	0.056	1.636	1772053708.240
887	700.000	-0.018	700.001	0.129	4.416	1772053708.521
888	700.000	-0.033	699.996	0.106	2.284	1772053708.826
889	700.000	0.035	699.999	0.121	4.970	1772053709.045
890	700.000	-0.002	699.997	0.139	3.211	1772053709.319
891	700.000	-0.008	699.998	0.121	1.605	1772053709.571
892	700.000	-0.036	699.997	0.080	5.452	1772053709.802
893	700.000	-0.002	700.001	0.165	3.197	1772053710.064
894	700.000	-0.004	699.997	0.142	1.947	1772053710.304
895	700.000	-0.011	700.003	0.107	5.237	1772053710.582
896	700.000	-0.002	699.998	0.186	2.524	1772053710.826
897	700.000	-0.018	700.000	0.064	6.131	1772053711.140
898	700.000	-0.006	700.002	0.131	3.852	1772053711.357
899	700.000	0.024	699.998	0.157	1.960	1772053711.629
900	700.000	0.001	700.002	0.136	4.855	1772053711.864
901	700.000	-0.002	699.999	0.155	3.838	1772053712.135
902	700.000	-0.015	700.002	0.102	2.699	1772053712.388
903	700.000	0.014	700.002	0.117	5.127	1772053712.702
904	700.000	-0.013	699.999	0.150	2.423	1772053712.935
905	700.000	0.040	700.003	0.039	0.664	1772053713.199
906	700.000	-0.016	700.003	0.150	4.858	1772053713.454
907	700.000	-0.025	700.000	0.112	1.964	1772053713.772
908	700.000	-0.027	699.999	0.081	5.696	1772053714.081
909	700.000	0.023	699.998	0.147	2.682	1772053714.386
910	700.000	0.001	700.000	0.112	0.639	1772053714.629
911	700.000	0.024	699.998	0.182	3.824	1772053714.859
912	700.000	-0.008	699.998	0.126	2.275	1772053715.146
913	700.000	-0.009	700.002	0.009	3.448	1772053715.379
914	700.000	-0.020	700.000	0.061	3.800	1772053715.685
915	700.000	-0.021	699.999	0.108	2.064	1772053715.932
916	700.000	0.027	700.000	0.097	5.348	1772053716.198
917	700.000	0.051	700.000	0.089	2.895	1772053716.427
918	700.000	0.029	700.001	0.058	1.130	1772053716.692
919	700.000	-0.009	700.001	0.097	5.091	1772053716.949
920	700.000	-0.006	700.000	0.102	3.014	1772053717.188
921	700.000	0.009	700.002	0.116	0.945	1772053717.446
922	700.000	-0.014	700.001	0.075	5.029	1772053717.696
923	700.000	-0.032	699.998	0.142	2.510	1772053717.979
924	700.000	-0.002	700.002	0.116	6.241	1772053718.256
925	700.000	-0.036	700.000	0.092	4.162	1772053718.498
926	700.000	-0.008	700.000	0.081	2.294	1772053718.769
927	700.000	-0.032	699.998	0.102	5.334	1772053719.016
928	700.000	-0.028	700.001	0.107	2.874	1772053719.327
929	700.000	0.004	700.003	0.108	1.403	1772053719.548
930	700.000	0.021	699.998	0.185	4.591	1772053719.816
931	700.000	0.013	700.002	0.113	2.711	1772053720.069
932	700.000	-0.002	700.000	0.030	1.722	1772053720.334
933	700.000	0.028	699.999	0.108	4.216	1772053720.625
934	700.000	0.002	699.995	0.112	1.822	1772053720.945
935	700.000	-0.020	700.000	0.105	5.113	1772053721.186
936	700.000	-0.010	699.999	0.123	3.195	1772053721.443
937	700.000	-0.014	699.996	0.122	0.726	1772053721.687
938	700.000	0.059	700.001	0.109	4.671	1772053721.951
939	700.000	0.022	699.999	0.189	2.714	1772053722.192
940	700.000	-0.009	700.000	0.096	1.215	1772053722.432
941	700.000	0.001	699.999	0.120	4.062	1772053722.703
942	700.000	0.048	699.999	0.098	2.487	1772053722.967
943	700.000	0.010	700.000	0.080	5.357	1772053723.214
944	700.000	-0.029	699.998	0.163	4.139	1772053723.456
945	700.000	-0.033	700.002	0.122	2.472	1772053723.719
946	700.000	0.022	699.997	0.122	5.613	1772053723.950
947	700.000	-0.001	699.996	0.125	3.649	1772053724.207
948	700.000	-0.055	700.003	0.179	1.559	1772053724.439
949	700.000	-0.007	700.003	0.144	5.269	1772053724.722
950	700.000	0.017	699.998	0.081	2.981	1772053724.976
951	700.000	0.016	700.000	0.062	1.987	1772053725.264
952	700.000	0.021	700.000	0.080	5.048	1772053725.497
953	700.000	0.028	700.000	0.098	2.389	1772053725.775
954	700.000	0.020	699.999	0.075	0.606	1772053726.025
955	700.000	-0.020	699.999	0.150	4.263	1772053726.273
956	700.000	0.012	699.999	0.162	2.212	1772053726.556
957	700.000	-0.000	700.000	0.075	4.588	1772053726.876
958	700.000	-0.018	699.999	0.161	2.994	1772053727.143
959	700.000	0.006	699.999	0.024	0.533	1772053727.429
960	700.000	0.006	699.999	0.146	4.185	1772053727.688
961	700.000	-0.020	700.000	0.097	1.971	1772053727.931
962	700.000	-0.003	699.998	0.053	0.010	1772053728.202
963	700.000	-0.024	699.999	0.056	4.058	1772053728.479
964	700.000	0.013	699.996	0.088	2.118	1772053728.743
965	700.000	-0.034	700.000	0.090	5.682	1772053728.968
966	700.000	-0.017	700.003	0.131	3.779	1772053729.242
967	700.000	0.016	699.996	0.128	1.020	1772053729.480
968	700.000	-0.021	699.999	0.083	5.375	1772053729.739
969	700.000	-0.018	699.999	0.098	3.309	1772053729.976
970	700.000	0.021	699.996	0.067	1.706	1772053730.233
971	700.000	-0.015	700.001	0.158	4.483	1772053730.487
972	700.000	-0.020	700.000	0.107	2.401	1772053730.753
973	700.000	0.002	699.999	0.052	5.788	1772053731.070
974	700.000	0.002	700.001	0.122	3.244	1772053731.341
975	700.000	-0.000	699.999	0.077	1.758	1772053731.617
976	700.000	0.011	700.001	0.104	5.019	1772053731.880
977	700.000	-0.048	699.998	0.109	2.740	1772053732.135
978	700.000	-0.010	699.998	0.048	1.997	1772053732.384
979	700.000	-0.005	700.001	0.155	4.798	1772053732.635
980	700.000	-0.010	699.998	0.154	2.365	1772053732.887
981	700.000	0.005	700.000	0.020	3.915	1772053733.122
982	700.000	0.001	700.002	0.183	4.224	1772053733.393
983	700.000	0.010	700.002	0.169	2.520	1772053733.653
984	700.000	-0.015	699.997	0.070	5.875	1772053733.961
985	700.000	-0.013	700.000	0.074	2.992	1772053734.245
986	700.000	0.025	699.998	0.054	3.438	1772053734.527
987	700.000	-0.023	699.999	0.122	4.975	1772053734.750
988	700.000	-0.001	700.000	0.106	1.937	1772053735.025
989	700.000	-0.015	700.001	0.037	6.082	1772053735.274
990	700.000	0.007	700.000	0.167	4.237	1772053735.515
991	700.000	0.017	699.999	0.105	2.237	1772053735.766
992	700.000	0.016	699.998	0.032	5.356	1772053736.002
993	700.000	0.047	699.998	0.099	4.309	1772053736.272
994	700.000	0.030	700.002	0.171	2.610	1772053736.493
995	700.000	-0.022	700.003	0.091	6.006	1772053736.763
996	700.000	-0.012	699.999	0.148	3.828	1772053737.015
997	700.000	0.008	699.999	0.128	1.928	1772053737.297
998	700.000	-0.016	700.000	0.124	4.958	1772053737.570
999	700.000	-0.008	700.004	0.095	2.549	1772053737.812
1000	700.000	-0.030	699.999	0.130	0.793	1772053738.071
1001	700.000	0.013	700.000	0.088	4.399	1772053738.335
1002	700.000	0.044	700.002	0.161	2.216	1772053738.577
1003	700.000	0.005	700.001	0.069	6.059	1772053738.838
1004	700.000	0.044	699.999	0.008	3.602	1772053739.072
1005	700.000	0.021	700.002	0.119	1.941	1772053739.320
1006	700.000	-0.002	699.999	0.021	6.131	1772053739.604
1007	700.000	0.009	699.999	0.125	3.393	1772053739.905
1008	700.000	-0.025	700.004	0.114	1.651	1772053740.148
1009	700.000	0.013	700.000	0.148	4.992	1772053740.387
1010	700.000	0.023	700.000	0.179	3.423	1772053740.633
1011	700.000	-0.007	700.002	0.094	0.942	1772053740.883
1012	700.000	0.026	699.999	0.066	5.356	1772053741.157
1013	700.000	-0.030	700.000	0.148	2.371	1772053741.463
1014	700.000	-0.006	700.002	0.095	5.641	1772053741.742
1015	700.000	-0.017	700.001	0.154	3.420	1772053742.017
1016	700.000	0.038	700.000	0.120	1.570	1772053742.253
1017	700.000	0.056	700.003	0.071	5.736	1772053742.511
1018	700.000	-0.017	699.999	0.129	3.269	1772053742.781
1019	700.000	-0.027	699.999	0.065	0.832	1772053743.020
1020	700.000	0.002	699.997	0.120	4.830	1772053743.270
1021	700.000	-0.005	700.000	0.100	1.969	1772053743.533
1022	700.000	-0.016	700.000	0.119	0.900	1772053743.775
1023	700.000	-0.029	699.999	0.066	4.390	1772053744.083
1024	700.000	-0.021	700.001	0.107	1.906	1772053744.330
1025	700.000	0.036	699.998	0.167	5.840	1772053744.563
1026	700.000	-0.003	700.000	0.121	3.303	1772053744.839
1027	700.000	-0.009	699.999	0.078	1.433	1772053745.071
1028	700.000	-0.046	699.999	0.148	4.860	1772053745.343
1029	700.000	0.030	700.000	0.091	3.121	1772053745.631
1030	700.000	0.002	699.996	0.102	0.261	1772053745.895
1031	700.000	0.034	700.000	0.092	3.934	1772053746.119
1032	700.000	-0.003	700.000	0.086	2.410	1772053746.398
1033	700.000	-0.011	700.003	0.055	5.061	1772053746.628
1034	700.000	-0.025	700.000	0.105	4.344	1772053746.887
1035	700.000	-0.048	700.002	0.081	2.207	1772053747.142
1036	700.000	-0.025	700.000	0.162	4.864	1772053747.392
1037	700.000	0.014	699.998	0.139	3.850	1772053747.642
1038	700.000	0.011	700.002	0.129	2.309	1772053747.912
1039	700.000	0.009	699.998	0.074	5.030	1772053748.163
1040	700.000	0.013	699.998	0.216	3.489	1772053748.394
1041	700.000	-0.023	700.000	0.109	0.622	1772053748.665
1042	700.000	0.033	700.000	0.094	5.131	1772053748.891
1043	700.000	-0.022	700.002	0.142	2.755	1772053749.156
1044	700.000	-0.002	699.998	0.021	5.706	1772053749.415
1045	700.000	-0.034	700.001	0.081	5.658	1772053749.661
1046	700.000	0.001	700.001	0.138	2.305	1772053749.906
1047	700.000	-0.030	700.004	0.116	6.198	1772053750.141
1048	700.000	-0.007	699.996	0.117	3.363	1772053750.409
1049	700.000	0.023	700.000	0.105	2.257	1772053750.643
1050	700.000	-0.006	700.007	0.034	5.096	1772053750.915
1051	700.000	-0.008	700.001	0.100	3.172	1772053751.165
1052	700.000	0.010	700.002	0.087	1.934	1772053751.409
1053	700.000	0.010	700.003	0.047	5.330	1772053751.660
1054	700.000	0.029	700.002	0.160	3.049	1772053751.892
1055	700.000	0.048	700.002	0.143	1.703	1772053752.150
1056	700.000	-0.006	700.002	0.110	4.524	1772053752.402
1057	700.000	0.033	699.999	0.185	3.087	1772053752.668
1058	700.000	-0.008	699.999	0.087	1.124	1772053752.926
1059	700.000	0.004	700.000	0.100	4.557	1772053753.199
1060	700.000	0.011	699.998	0.132	2.906	1772053753.421
1061	700.000	0.012	700.001	0.043	2.677	1772053753.700
1062	700.000	-0.003	700.003	0.054	3.471	1772053753.979
1063	700.000	0.025	699.998	0.102	2.018	1772053754.238
1064	700.000	-0.050	699.996	0.162	0.125	1772053754.481
1065	700.000	-0.032	700.000	0.129	4.203	1772053754.717
1066	700.000	0.011	700.002	0.112	1.804	1772053754.983
1067	700.000	-0.006	700.000	0.063	4.476	1772053755.231
1068	700.000	0.037	700.004	0.092	3.591	1772053755.488
1069	700.000	-0.061	700.000	0.096	1.140	1772053755.714
1070	700.000	-0.013	700.003	0.118	4.790	1772053755.987
1071	700.000	-0.024	700.000	0.082	3.103	1772053756.242
1072	700.000	0.001	700.003	0.095	0.556	1772053756.497
1073	700.000	-0.011	699.999	0.147	3.999	1772053756.745
1074	700.000	-0.053	700.003	0.104	2.811	1772053756.996
1075	700.000	0.003	700.001	0.094	0.867	1772053757.245
1076	700.000	0.006	700.000	0.109	3.937	1772053757.467
1077	700.000	0.024	700.001	0.166	2.912	1772053757.747
1078	700.000	-0.007	700.000	0.066	0.227	1772053757.976
1079	700.000	0.043	700.001	0.077	3.292	1772053758.248
1080	700.000	0.015	700.001	0.172	1.518	1772053758.491
1081	700.000	-0.033	699.998	0.091	4.826	1772053758.738
1082	700.000	-0.026	700.000	0.074	3.645	1772053758.992
1083	700.000	0.008	699.998	0.196	1.230	1772053759.219
1084	700.000	0.009	700.000	0.138	5.699	1772053759.479
1085	700.000	-0.019	700.000	0.114	3.386	1772053759.734
1086	700.000	0.010	699.998	0.088	2.412	1772053760.010
1087	700.000	-0.010	699.999	0.097	4.995	1772053760.313
1088	700.000	0.003	699.999	0.104	2.200	1772053760.590
1089	700.000	-0.014	699.998	0.156	6.280	1772053760.867
1090	700.000	-0.002	700.000	0.114	3.462	1772053761.117
1091	700.000	-0.012	699.999	0.088	1.363	1772053761.408
1092	700.000	0.035	700.004	0.131	3.558	1772053761.703
1093	700.000	0.033	700.005	0.184	2.640	1772053761.950
1094	700.000	0.016	699.999	0.108	1.362	1772053762.174
1095	700.000	-0.047	700.001	0.123	4.068	1772053762.445
1096	700.000	-0.013	700.002	0.089	2.511	1772053762.684
1097	700.000	-0.041	700.000	0.100	0.979	1772053762.931
1098	700.000	-0.025	699.999	0.150	3.873	1772053763.174
1099	700.000	0.024	700.001	0.149	2.357	1772053763.447
1100	700.000	-0.005	700.000	0.075	4.443	1772053763.692
1101	700.000	0.036	699.997	0.146	3.568	1772053763.916
1102	700.000	-0.019	700.002	0.115	1.562	1772053764.201
1103	700.000	0.006	699.994	0.102	5.846	1772053764.428
1104	700.000	-0.016	699.998	0.026	3.663	1772053764.695
1105	700.000	-0.027	700.001	0.095	1.832	1772053764.931
1106	700.000	0.012	700.000	0.143	5.192	1772053765.173
1107	700.000	0.012	699.999	0.145	3.139	1772053765.428
1108	700.000	-0.036	700.001	0.105	1.350	1772053765.688
1109	700.000	0.004	700.001	0.134	4.693	1772053765.944
1110	700.000	-0.021	699.999	0.168	2.850	1772053766.183
1111	700.000	0.004	700.002	0.079	0.640	1772053766.454
1112	700.000	-0.046	700.001	0.146	4.465	1772053766.759
1113	700.000	0.008	699.998	0.174	1.800	1772053767.010
1114	700.000	0.027	699.999	0.108	5.644	1772053767.230
1115	700.000	-0.008	700.001	0.132	3.698	1772053767.502
1116	700.000	0.015	699.999	0.127	1.269	1772053767.761
1117	700.000	0.051	700.002	0.145	5.388	1772053768.017
1118	700.000	0.013	700.002	0.125	3.168	1772053768.274
1119	700.000	-0.001	700.001	0.123	1.202	1772053768.576
1120	700.000	0.018	700.000	0.044	4.468	1772053768.785
1121	700.000	0.007	699.998	0.080	2.915	1772053769.066
1122	700.000	-0.005	699.995	0.115	0.179	1772053769.315
1123	700.000	0.011	700.002	0.099	4.516	1772053769.568
1124	700.000	0.029	700.001	0.127	1.907	1772053769.800
1125	700.000	0.017	699.998	0.041	0.227	1772053770.050
1126	700.000	0.028	700.002	0.077	4.317	1772053770.332
1127	700.000	0.019	700.004	0.139	1.371	1772053770.634
1128	700.000	0.013	700.000	0.125	5.684	1772053770.886
1129	700.000	-0.020	700.001	0.163	3.000	1772053771.113
1130	700.000	-0.000	699.998	0.055	1.501	1772053771.374
1131	700.000	0.023	699.997	0.089	4.329	1772053771.643
1132	700.000	0.021	699.998	0.181	2.935	1772053771.889
1133	700.000	0.008	700.000	0.057	0.813	1772053772.119
1134	700.000	0.007	700.001	0.113	4.197	1772053772.384
1135	700.000	0.012	700.002	0.065	1.599	1772053772.626
1136	700.000	-0.017	700.000	0.031	4.726	1772053772.888
1137	700.000	-0.016	699.999	0.179	4.276	1772053773.129
1138	700.000	0.017	699.998	0.101	3.116	1772053773.360
1139	700.000	0.021	700.004	0.088	6.035	1772053773.628
1140	700.000	0.029	700.001	0.101	4.493	1772053773.882
1141	700.000	-0.018	699.998	0.097	1.809	1772053774.187
1142	700.000	-0.002	699.999	0.118	6.136	1772053774.437
1143	700.000	0.012	699.996	0.107	3.041	1772053774.694
1144	700.000	0.001	699.998	0.060	1.633	1772053774.919
1145	700.000	-0.004	699.999	0.148	5.574	1772053775.191
1146	700.000	0.007	700.000	0.092	2.075	1772053775.450
1147	700.000	0.021	699.997	0.072	0.985	1772053775.734
1148	700.000	-0.015	700.002	0.124	4.605	1772053775.965
1149	700.000	0.035	699.997	0.149	2.565	1772053776.238
1150	700.000	-0.035	699.998	0.087	0.248	1772053776.479
1151	700.000	0.020	700.002	0.194	4.309	1772053776.729
1152	700.000	0.010	699.999	0.153	2.134	1772053776.972
1153	700.000	0.012	699.999	0.192	0.047	1772053777.241
1154	700.000	-0.015	700.000	0.060	3.609	1772053777.528
1155	700.000	-0.005	699.996	0.145	1.560	1772053777.802
1156	700.000	0.003	699.998	0.127	5.150	1772053778.044
1157	700.000	-0.016	699.999	0.143	3.034	1772053778.265
1158	700.000	-0.015	700.001	0.181	0.933	1772053778.533
1159	700.000	0.023	700.001	0.071	4.303	1772053778.794
1160	700.000	0.016	700.002	0.147	2.338	1772053779.054
1161	700.000	0.018	700.000	0.041	6.010	1772053779.353
1162	700.000	-0.026	700.000	0.061	4.843	1772053779.594
1163	700.000	-0.010	700.003	0.127	2.257	1772053779.820
1164	700.000	0.020	700.001	0.083	0.295	1772053780.086
1165	700.000	-0.007	700.001	0.073	3.402	1772053780.339
1166	700.000	-0.018	700.003	0.096	1.991	1772053780.612
1167	700.000	-0.016	700.002	0.106	4.828	1772053780.867
1168	700.000	-0.053	699.999	0.185	3.034	1772053781.125
1169	700.000	0.030	700.002	0.063	2.125	1772053781.369
1170	700.000	0.041	699.998	0.126	4.964	1772053781.617
1171	700.000	0.018	699.998	0.118	2.755	1772053781.880
1172	700.000	-0.031	699.999	0.078	0.952	1772053782.178
1173	700.000	-0.017	699.999	0.140	4.996	1772053782.414
1174	700.000	-0.009	699.999	0.140	2.341	1772053782.687
1175	700.000	0.008	700.002	0.073	5.555	1772053782.973
1176	700.000	0.037	699.999	0.068	2.684	1772053783.221
1177	700.000	0.020	700.002	0.122	1.786	1772053783.479
1178	700.000	0.021	699.997	0.136	5.287	1772053783.741
1179	700.000	0.001	699.999	0.135	2.258	1772053783.978
1180	700.000	-0.005	700.003	0.107	1.423	1772053784.238
1181	700.000	-0.028	700.001	0.160	4.145	1772053784.472
1182	700.000	0.014	700.003	0.107	2.317	1772053784.720
1183	700.000	-0.000	700.000	0.076	4.523	1772053784.989
1184	700.000	0.005	700.002	0.176	3.823	1772053785.248
1185	700.000	0.015	700.003	0.092	1.439	1772053785.508
1186	700.000	-0.014	700.002	0.117	5.310	1772053785.780
1187	700.000	0.005	700.000	0.088	3.715	1772053786.027
1188	700.000	-0.024	700.001	0.151	1.728	1772053786.267
1189	700.000	0.051	699.997	0.137	5.008	1772053786.528
1190	700.000	-0.028	699.997	0.150	3.299	1772053786.781
1191	700.000	-0.025	700.002	0.104	1.576	1772053787.023
1192	700.000	0.008	700.001	0.151	4.991	1772053787.275
1193	700.000	0.016	699.999	0.142	2.444	1772053787.515
1194	700.000	-0.046	700.000	0.135	1.940	1772053787.772
1195	700.000	-0.001	700.000	0.164	4.212	1772053788.006
1196	700.000	0.007	700.001	0.147	3.265	1772053788.272
1197	700.000	-0.006	699.998	0.087	1.153	1772053788.532
1198	700.000	-0.007	699.998	0.079	4.339	1772053788.835
1199	700.000	0.021	699.999	0.227	1.680	1772053789.058
1200	700.000	0.024	699.998	0.165	0.229	1772053789.331
1201	700.000	0.022	699.999	0.179	3.458	1772053789.590
1202	700.000	-0.003	699.998	0.125	0.919	1772053789.889
1203	700.000	-0.011	700.002	0.106	5.200	1772053790.118
1204	700.000	0.000	699.997	0.176	2.831	1772053790.397
1205	700.000	-0.037	700.003	0.092	0.911	1772053790.622
1206	700.000	0.019	700.000	0.176	4.538	1772053790.885
1207	700.000	0.021	700.001	0.194	2.469	1772053791.145
1208	700.000	0.007	700.001	0.156	5.810	1772053791.391
1209	700.000	0.002	700.001	0.103	4.403	1772053791.639
1210	700.000	-0.024	700.002	0.160	2.559	1772053791.916
1211	700.000	0.003	700.001	0.119	5.467	1772053792.178
1212	700.000	-0.015	700.000	0.112	3.364	1772053792.473
1213	700.000	0.061	700.000	0.105	1.146	1772053792.705
1214	700.000	0.049	700.000	0.160	4.872	1772053792.985
1215	700.000	-0.019	699.999	0.155	3.308	1772053793.220
1216	700.000	-0.002	699.999	0.097	1.002	1772053793.453
1217	700.000	-0.024	700.001	0.199	4.507	1772053793.702
1218	700.000	0.009	700.002	0.131	2.668	1772053793.964
1219	700.000	0.015	700.002	0.023	0.570	1772053794.218
1220	700.000	0.002	700.001	0.156	4.689	1772053794.457
1221	700.000	0.008	700.001	0.167	2.782	1772053794.747
1222	700.000	0.012	699.998	0.146	5.118	1772053795.051
1223	700.000	0.002	699.998	0.124	3.434	1772053795.295
1224	700.000	0.048	699.997	0.094	1.487	1772053795.526
1225	700.000	0.000	699.997	0.077	5.122	1772053795.803
1226	700.000	-0.026	699.994	0.167	3.370	1772053796.034
1227	700.000	-0.016	699.996	0.093	1.621	1772053796.272
1228	700.000	0.018	699.999	0.188	4.958	1772053796.551
1229	700.000	0.043	700.001	0.241	3.165	1772053796.795
1230	700.000	-0.014	699.998	0.179	0.644	1772053797.083
1231	700.000	0.013	699.998	0.182	4.128	1772053797.362
1232	700.000	-0.012	699.998	0.113	1.638	1772053797.650
1233	700.000	0.012	700.001	0.138	5.061	1772053797.901
1234	700.000	0.007	699.999	0.161	3.345	1772053798.123
1235	700.000	0.048	700.001	0.156	1.741	1772053798.414
1236	700.000	-0.001	700.001	0.122	5.090	1772053798.660
1237	700.000	-0.014	700.002	0.120	2.678	1772053798.900
1238	700.000	0.005	700.000	0.121	1.001	1772053799.145
1239	700.000	-0.014	700.000	0.149	5.483	1772053799.422
1240	700.000	0.015	699.998	0.163	3.177	1772053799.674
1241	700.000	0.013	700.000	0.092	0.088	1772053799.900
1242	700.000	-0.005	699.999	0.179	4.396	1772053800.165
1243	700.000	-0.019	699.998	0.208	2.481	1772053800.418
1244	700.000	-0.002	700.001	0.042	3.560	1772053800.660
1245	700.000	0.012	699.999	0.207	4.184	1772053800.922
1246	700.000	-0.008	700.000	0.184	1.678	1772053801.157
1247	700.000	-0.054	700.002	0.100	5.538	1772053801.428
1248	700.000	-0.033	699.998	0.147	3.256	1772053801.751
1249	700.000	0.050	700.001	0.074	0.747	1772053802.040
1250	700.000	-0.028	699.998	0.084	5.392	1772053802.301
1251	700.000	0.023	700.001	0.152	2.427	1772053802.546
1252	700.000	-0.014	700.002	0.108	0.152	1772053802.830
1253	700.000	0.013	700.001	0.034	3.268	1772053803.104
1254	700.000	-0.015	699.997	0.107	1.522	1772053803.355
1255	700.000	0.014	699.997	0.211	5.235	1772053803.619
1256	700.000	0.046	699.996	0.163	3.148	1772053803.912
1257	700.000	0.034	699.998	0.097	0.876	1772053804.171
1258	700.000	-0.019	699.998	0.140	4.755	1772053804.408
1259	700.000	-0.016	700.001	0.106	2.885	1772053804.656
1260	700.000	0.015	699.999	0.082	0.325	1772053804.908
1261	700.000	-0.004	700.003	0.131	4.399	1772053805.139
1262	700.000	-0.023	699.998	0.167	1.912	1772053805.407
1263	700.000	0.005	700.002	0.135	4.709	1772053805.662
1264	700.000	-0.006	700.002	0.139	3.521	1772053805.974
1265	700.000	0.008	700.003	0.120	1.653	1772053806.226
1266	700.000	0.021	700.002	0.178	4.966	1772053806.465
1267	700.000	-0.001	699.997	0.144	3.215	1772053806.705
1268	700.000	-0.012	700.000	0.073	1.453	1772053806.970
1269	700.000	0.016	699.997	0.167	4.765	1772053807.247
1270	700.000	0.045	699.999	0.122	1.918	1772053807.540
1271	700.000	-0.013	700.001	0.066	4.645	1772053807.777
1272	700.000	0.020	700.003	0.138	3.368	1772053808.034
1273	700.000	0.006	700.002	0.134	1.723	1772053808.281
1274	700.000	-0.020	699.999	0.171	5.739	1772053808.549
1275	700.000	0.002	700.001	0.115	3.310	1772053808.814
1276	700.000	-0.027	700.000	0.123	0.793	1772053809.095
1277	700.000	0.035	699.998	0.167	4.990	1772053809.328
1278	700.000	0.025	700.004	0.117	3.008	1772053809.603
1279	700.000	-0.010	700.001	0.058	0.829	1772053809.834
1280	700.000	0.021	700.001	0.205	4.314	1772053810.111
1281	700.000	-0.003	700.001	0.156	2.136	1772053810.364
1282	700.000	-0.004	700.001	0.100	6.177	1772053810.610
1283	700.000	-0.020	700.000	0.179	4.075	1772053810.841
1284	700.000	-0.011	699.997	0.143	2.579	1772053811.134
1285	700.000	0.007	700.001	0.115	5.590	1772053811.375
1286	700.000	-0.007	699.991	0.203	3.859	1772053811.596
1287	700.000	0.020	700.000	0.105	2.016	1772053811.871
1288	700.000	-0.023	700.000	0.159	5.174	1772053812.122
1289	700.000	-0.029	699.999	0.101	2.993	1772053812.429
1290	700.000	-0.011	700.002	0.121	0.944	1772053812.659
1291	700.000	0.015	700.003	0.144	4.389	1772053812.930
1292	700.000	0.007	699.998	0.224	2.374	1772053813.156
1293	700.000	-0.023	700.001	0.056	6.142	1772053813.429
1294	700.000	-0.013	699.998	0.119	4.152	1772053813.673
1295	700.000	0.015	700.002	0.132	2.560	1772053813.925
1296	700.000	0.026	700.002	0.112	5.236	1772053814.188
1297	700.000	0.009	700.001	0.064	3.374	1772053814.423
1298	700.000	0.038	700.000	0.151	2.484	1772053814.680
1299	700.000	0.009	699.999	0.087	5.713	1772053814.925
1300	700.000	0.000	700.001	0.114	3.575	1772053815.172
1301	700.000	-0.013	700.000	0.153	2.223	1772053815.434
1302	700.000	-0.020	700.002	0.091	5.178	1772053815.703
1303	700.000	-0.006	699.998	0.130	2.742	1772053815.994
1304	700.000	-0.006	699.999	0.102	0.461	1772053816.247
1305	700.000	-0.004	700.001	0.071	4.318	1772053816.470
1306	700.000	-0.009	700.001	0.134	2.421	1772053816.734
1307	700.000	-0.030	700.002	0.133	6.089	1772053817.012
1308	700.000	-0.007	699.998	0.221	3.499	1772053817.310
1309	700.000	0.011	699.999	0.144	2.198	1772053817.540
1310	700.000	0.027	699.997	0.151	5.509	1772053817.802
1311	700.000	-0.025	700.000	0.159	3.520	1772053818.036
1312	700.000	-0.017	700.000	0.107	1.893	1772053818.307
1313	700.000	-0.018	699.999	0.095	4.637	1772053818.626
1314	700.000	-0.009	700.002	0.150	1.763	1772053818.880
1315	700.000	-0.011	700.001	0.107	6.038	1772053819.102
1316	700.000	-0.015	700.001	0.203	4.226	1772053819.403
1317	700.000	-0.000	699.998	0.140	1.926	1772053819.637
1318	700.000	-0.004	700.000	0.165	5.369	1772053819.906
1319	700.000	-0.042	699.998	0.176	3.369	1772053820.130
1320	700.000	-0.020	700.002	0.114	1.901	1772053820.401
1321	700.000	0.034	700.000	0.193	5.502	1772053820.651
1322	700.000	0.000	699.999	0.196	3.191	1772053820.910
1323	700.000	0.039	700.001	0.104	0.914	1772053821.198
1324	700.000	0.038	700.001	0.143	4.638	1772053821.454
1325	700.000	-0.002	700.000	0.185	2.177	1772053821.676
1326	700.000	0.009	699.999	0.139	0.320	1772053821.964
1327	700.000	0.013	699.998	0.126	3.728	1772053822.204
1328	700.000	0.010	699.999	0.150	2.537	1772053822.479
1329	700.000	-0.026	700.002	0.123	5.429	1772053822.752
1330	700.000	-0.021	699.999	0.125	3.265	1772053823.027
1331	700.000	0.015	700.001	0.094	2.158	1772053823.248
1332	700.000	-0.014	699.998	0.166	4.709	1772053823.537
1333	700.000	0.049	700.003	0.176	2.926	1772053823.782
1334	700.000	-0.039	699.996	0.161	0.363	1772053824.041
1335	700.000	0.003	699.997	0.218	4.757	1772053824.288
1336	700.000	0.009	699.999	0.177	2.868	1772053824.554
1337	700.000	-0.031	700.000	0.101	5.810	1772053824.841
1338	700.000	0.000	699.999	0.209	3.527	1772053825.104
1339	700.000	0.007	700.001	0.137	2.827	1772053825.331
1340	700.000	0.027	699.999	0.141	5.610	1772053825.581
1341	700.000	-0.009	700.001	0.144	3.626	1772053825.841
1342	700.000	-0.017	699.997	0.155	1.763	1772053826.116
1343	700.000	0.008	699.999	0.136	4.464	1772053826.428
1344	700.000	0.015	700.001	0.142	2.131	1772053826.736
1345	700.000	-0.021	699.999	0.099	5.036	1772053826.989
1346	700.000	-0.027	699.999	0.132	2.930	1772053827.278
1347	700.000	0.017	700.000	0.092	1.162	1772053827.527
1348	700.000	-0.002	699.997	0.237	4.612	1772053827.778
1349	700.000	-0.058	700.000	0.152	2.908	1772053828.038
1350	700.000	0.004	700.002	0.172	0.909	1772053828.274
1351	700.000	-0.034	699.998	0.193	4.631	1772053828.540
1352	700.000	0.021	700.002	0.186	2.530	1772053828.789
1353	700.000	0.013	699.999	0.073	6.229	1772053829.016
1354	700.000	-0.011	699.999	0.186	4.250	1772053829.289
1355	700.000	-0.019	700.002	0.151	2.344	1772053829.525
1356	700.000	0.017	700.001	0.172	5.927	1772053829.800
1357	700.000	-0.011	700.001	0.167	3.872	1772053830.043
1358	700.000	-0.006	699.998	0.175	2.242	1772053830.288
1359	700.000	0.000	700.003	0.155	5.499	1772053830.537
1360	700.000	0.019	699.997	0.098	4.018	1772053830.773
1361	700.000	0.012	700.001	0.094	1.792	1772053831.051
1362	700.000	-0.024	699.999	0.191	5.009	1772053831.277
1363	700.000	-0.001	700.001	0.164	2.936	1772053831.531
1364	700.000	0.021	699.994	0.184	1.393	1772053831.789
1365	700.000	-0.005	700.000	0.170	4.650	1772053832.020
1366	700.000	0.005	699.998	0.245	2.691	1772053832.283
1367	700.000	0.016	700.001	0.135	0.763	1772053832.510
1368	700.000	0.007	700.003	0.097	4.869	1772053832.772
1369	700.000	-0.032	700.001	0.162	2.399	1772053833.032
1370	700.000	-0.033	699.998	0.039	0.880	1772053833.297
1371	700.000	0.002	700.000	0.166	4.319	1772053833.526
1372	700.000	-0.050	700.002	0.196	2.467	1772053833.797
1373	700.000	-0.011	700.000	0.123	5.946	1772053834.051
1374	700.000	-0.021	699.999	0.068	4.624	1772053834.285
1375	700.000	-0.023	699.998	0.130	2.034	1772053834.540
1376	700.000	0.011	700.004	0.091	5.875	1772053834.766
1377	700.000	0.016	699.999	0.164	3.615	1772053835.034
1378	700.000	-0.025	699.999	0.133	1.442	1772053835.289
1379	700.000	-0.026	699.998	0.112	4.518	1772053835.550
1380	700.000	0.016	699.999	0.183	3.354	1772053835.787
1381	700.000	0.009	700.001	0.157	1.581	1772053836.013
1382	700.000	0.017	700.001	0.152	5.076	1772053836.285
1383	700.000	-0.007	699.998	0.192	2.895	1772053836.527
1384	700.000	-0.035	700.000	0.150	0.683	1772053836.789
1385	700.000	-0.014	699.999	0.232	4.370	1772053837.086
1386	700.000	-0.003	700.000	0.183	2.781	1772053837.373
1387	700.000	-0.012	699.996	0.062	6.052	1772053837.624
1388	700.000	0.004	699.999	0.183	3.537	1772053837.889
1389	700.000	0.003	700.001	0.173	1.605	1772053838.117
1390	700.000	0.017	700.001	0.166	5.422	1772053838.381
1391	700.000	-0.018	700.000	0.066	3.103	1772053838.613
1392	700.000	-0.003	700.004	0.105	1.728	1772053838.885
1393	700.000	0.025	699.998	0.135	4.650	1772053839.143
1394	700.000	-0.024	700.001	0.163	2.741	1772053839.454
1395	700.000	-0.022	700.000	0.056	0.109	1772053839.751
1396	700.000	-0.024	699.996	0.152	3.747	1772053839.991
1397	700.000	0.002	700.000	0.121	1.799	1772053840.227
1398	700.000	0.016	699.998	0.177	5.341	1772053840.510
1399	700.000	-0.022	700.003	0.178	3.473	1772053840.733
1400	700.000	0.009	699.998	0.177	1.866	1772053841.003
1401	700.000	-0.007	700.002	0.130	5.334	1772053841.259
1402	700.000	0.009	700.003	0.136	2.576	1772053841.527
1403	700.000	-0.014	699.999	0.114	1.630	1772053841.766
1404	700.000	0.011	699.999	0.225	4.331	1772053842.043
1405	700.000	-0.032	700.004	0.136	2.515	1772053842.317
1406	700.000	-0.006	700.000	0.068	5.193	1772053842.580
1407	700.000	0.017	700.001	0.263	3.889	1772053842.830
1408	700.000	0.012	699.998	0.164	1.970	1772053843.071
1409	700.000	-0.037	700.001	0.090	5.630	1772053843.332
1410	700.000	-0.024	700.001	0.146	4.037	1772053843.586
1411	700.000	0.002	700.000	0.171	2.227	1772053843.822
1412	700.000	0.016	700.001	0.082	5.316	1772053844.086
1413	700.000	-0.021	700.001	0.181	3.924	1772053844.327
1414	700.000	0.002	700.000	0.142	1.356	1772053844.578
1415	700.000	-0.019	699.999	0.116	4.283	1772053844.891
1416	700.000	-0.015	700.003	0.122	3.143	1772053845.124
1417	700.000	0.000	700.003	0.109	0.385	1772053845.400
1418	700.000	-0.018	700.000	0.151	3.866	1772053845.635
1419	700.000	-0.012	699.998	0.112	2.139	1772053845.940
1420	700.000	0.022	699.997	0.081	5.716	1772053846.177
1421	700.000	-0.006	700.001	0.202	3.726	1772053846.441
1422	700.000	-0.025	699.998	0.187	1.467	1772053846.670
1423	700.000	0.003	700.000	0.134	5.103	1772053846.952
1424	700.000	0.021	700.001	0.107	3.396	1772053847.178
1425	700.000	-0.037	700.002	0.087	1.488	1772053847.437
1426	700.000	0.020	699.998	0.185	4.625	1772053847.690
1427	700.000	-0.025	699.998	0.140	3.273	1772053847.966
1428	700.000	0.021	699.995	0.113	0.455	1772053848.240
1429	700.000	-0.021	699.997	0.172	3.843	1772053848.500
1430	700.000	-0.025	699.999	0.176	2.352	1772053848.741
1431	700.000	0.007	700.002	0.148	5.574	1772053848.998
1432	700.000	0.009	700.002	0.168	4.067	1772053849.259
1433	700.000	-0.017	700.000	0.156	1.722	1772053849.506
1434	700.000	0.004	699.999	0.149	5.088	1772053849.760
1435	700.000	0.017	699.999	0.147	3.934	1772053849.986
1436	700.000	-0.011	699.998	0.145	1.866	1772053850.264
1437	700.000	0.027	700.001	0.180	5.012	1772053850.495
1438	700.000	0.001	700.002	0.052	3.971	1772053850.771
1439	700.000	0.003	699.999	0.075	0.539	1772053851.055
1440	700.000	-0.034	700.002	0.171	4.588	1772053851.309
1441	700.000	-0.034	699.999	0.134	2.412	1772053851.568
1442	700.000	-0.017	699.995	0.052	5.440	1772053851.874
1443	700.000	0.011	700.001	0.244	3.637	1772053852.114
1444	700.000	0.021	700.002	0.147	1.749	1772053852.382
1445	700.000	0.004	700.001	0.193	5.481	1772053852.609
1446	700.000	0.021	700.001	0.206	4.148	1772053852.877
1447	700.000	0.012	700.001	0.124	1.230	1772053853.132
1448	700.000	0.020	699.999	0.195	4.340	1772053853.386
1449	700.000	-0.016	700.002	0.181	2.892	1772053853.637
1450	700.000	0.011	699.999	0.090	1.041	1772053853.877
1451	700.000	-0.013	699.999	0.179	4.463	1772053854.144
1452	700.000	0.005	700.001	0.123	2.198	1772053854.447
1453	700.000	0.003	700.000	0.042	3.842	1772053854.680
1454	700.000	-0.011	700.002	0.108	3.949	1772053854.949
1455	700.000	-0.008	699.996	0.088	1.965	1772053855.204
1456	700.000	-0.011	700.000	0.132	5.123	1772053855.515
1457	700.000	0.034	700.001	0.150	2.816	1772053855.836
1458	700.000	0.002	700.000	0.048	0.437	1772053856.124
1459	700.000	-0.016	700.001	0.196	3.954	1772053856.442
1460	700.000	0.011	700.002	0.142	1.153	1772053856.681
1461	700.000	0.016	700.000	0.182	5.031	1772053856.939
1462	700.000	-0.024	699.999	0.215	3.539	1772053857.203
1463	700.000	-0.008	700.002	0.074	0.744	1772053857.482
1464	700.000	-0.014	700.002	0.169	4.386	1772053857.755
1465	700.000	0.015	700.002	0.086	2.432	1772053857.984
1466	700.000	0.023	700.000	0.061	6.234	1772053858.240
1467	700.000	-0.016	700.001	0.210	4.085	1772053858.510
1468	700.000	-0.024	699.999	0.099	2.137	1772053858.776
1469	700.000	-0.004	699.998	0.168	4.637	1772053859.035
1470	700.000	-0.025	700.002	0.108	3.493	1772053859.273
1471	700.000	-0.014	699.999	0.151	1.851	1772053859.532
1472	700.000	-0.005	699.998	0.146	4.926	1772053859.782
1473	700.000	-0.015	699.997	0.090	2.948	1772053860.026
1474	700.000	0.023	699.998	0.156	1.037	1772053860.276
1475	700.000	0.011	699.999	0.149	4.682	1772053860.547
1476	700.000	0.023	700.003	0.152	2.644	1772053860.828
1477	700.000	0.014	699.999	0.138	0.346	1772053861.112
1478	700.000	-0.008	699.999	0.131	3.117	1772053861.397
1479	700.000	-0.012	699.998	0.102	1.258	1772053861.685
1480	700.000	-0.007	700.001	0.178	5.093	1772053861.937
1481	700.000	-0.014	699.997	0.158	3.340	1772053862.191
1482	700.000	0.003	700.000	0.147	1.233	1772053862.417
1483	700.000	0.004	700.004	0.201	4.604	1772053862.691
1484	700.000	-0.018	699.998	0.274	2.868	1772053862.926
1485	700.000	-0.021	700.002	0.101	0.435	1772053863.185
1486	700.000	0.006	700.004	0.167	4.587	1772053863.418
1487	700.000	-0.031	700.005	0.123	2.743	1772053863.698
1488	700.000	0.025	700.003	0.109	6.234	1772053863.984
1489	700.000	-0.011	700.000	0.193	3.333	1772053864.300
1490	700.000	-0.012	699.997	0.094	1.348	1772053864.549
1491	700.000	-0.027	700.002	0.108	4.406	1772053864.799
1492	700.000	-0.003	700.000	0.110	2.748	1772053865.026
1493	700.000	-0.031	700.000	0.090	1.065	1772053865.306
1494	700.000	0.023	699.999	0.170	4.210	1772053865.550
1495	700.000	0.004	700.000	0.134	2.422	1772053865.800
1496	700.000	0.020	700.003	0.091	0.090	1772053866.059
1497	700.000	-0.011	700.000	0.210	4.117	1772053866.310
1498	700.000	-0.032	699.999	0.131	2.212	1772053866.597
1499	700.000	-0.002	700.001	0.134	4.951	1772053866.889
1500	700.000	-0.018	700.002	0.222	3.750	1772053867.115
1501	700.000	-0.013	699.999	0.098	1.317	1772053867.395
1502	700.000	-0.014	700.000	0.098	4.950	1772053867.644
1503	700.000	-0.020	699.998	0.156	2.583	1772053867.938
1504	700.000	0.037	700.002	0.027	5.226	1772053868.177
1505	700.000	-0.007	700.000	0.103	4.191	1772053868.452
1506	700.000	-0.032	699.998	0.186	2.276	1772053868.681
1507	700.000	-0.032	699.999	0.117	5.454	1772053868.954
1508	700.000	-0.044	700.002	0.178	3.887	1772053869.196
1509	700.000	0.016	700.003	0.174	2.391	1772053869.447
1510	700.000	-0.003	699.999	0.133	5.016	1772053869.703
1511	700.000	-0.020	700.006	0.172	2.807	1772053869.991
1512	700.000	0.015	699.999	0.117	1.145	1772053870.240
1513	700.000	0.041	700.000	0.184	4.102	1772053870.509
1514	700.000	-0.026	699.997	0.153	2.614	1772053870.770
1515	700.000	-0.026	700.001	0.067	5.959	1772053871.075
1516	700.000	0.009	700.004	0.179	3.629	1772053871.364
1517	700.000	0.008	699.998	0.067	2.318	1772053871.645
1518	700.000	0.005	700.000	0.142	5.243	1772053871.891
1519	700.000	-0.028	700.001	0.158	2.779	1772053872.148
1520	700.000	-0.004	700.000	0.063	1.527	1772053872.444
1521	700.000	-0.019	700.001	0.160	4.256	1772053872.701
1522	700.000	-0.039	699.998	0.131	2.526	1772053872.942
1523	700.000	0.042	699.999	0.120	5.869	1772053873.201
1524	700.000	-0.025	700.000	0.212	3.966	1772053873.434
1525	700.000	-0.007	700.003	0.143	2.129	1772053873.704
1526	700.000	0.002	699.999	0.114	5.414	1772053873.933
1527	700.000	0.013	700.003	0.212	3.878	1772053874.180
1528	700.000	-0.002	700.000	0.089	2.198	1772053874.429
1529	700.000	0.020	700.001	0.085	6.037	1772053874.704
1530	700.000	-0.012	699.999	0.178	3.205	1772053874.927
1531	700.000	-0.002	699.999	0.123	1.717	1772053875.165
1532	700.000	-0.021	699.999	0.099	5.721	1772053875.441
1533	700.000	-0.005	699.999	0.111	2.550	1772053875.674
1534	700.000	0.036	699.998	0.094	1.106	1772053875.952
1535	700.000	0.022	700.000	0.150	4.610	1772053876.182
1536	700.000	0.008	699.997	0.193	3.269	1772053876.439
1537	700.000	-0.008	699.999	0.075	0.377	1772053876.693
1538	700.000	0.002	700.000	0.194	4.257	1772053876.912
1539	700.000	0.005	700.000	0.129	2.752	1772053877.196
1540	700.000	-0.020	700.000	0.187	0.061	1772053877.427
1541	700.000	-0.016	699.997	0.179	4.058	1772053877.689
1542	700.000	0.008	699.995	0.123	2.145	1772053877.926
1543	700.000	0.011	699.999	0.087	0.027	1772053878.195
1544	700.000	-0.002	700.002	0.074	4.175	1772053878.419
1545	700.000	0.014	700.000	0.131	2.386	1772053878.692
1546	700.000	-0.002	699.998	0.115	5.505	1772053878.943
1547	700.000	-0.020	700.002	0.133	3.759	1772053879.161
1548	700.000	-0.015	700.001	0.164	1.562	1772053879.435
1549	700.000	0.043	700.004	0.197	4.909	1772053879.689
1550	700.000	-0.014	700.000	0.170	3.284	1772053879.940
1551	700.000	-0.032	700.001	0.075	1.418	1772053880.187
1552	700.000	-0.041	699.999	0.101	4.475	1772053880.449
1553	700.000	-0.023	700.001	0.179	3.404	1772053880.688
1554	700.000	-0.025	699.998	0.085	0.781	1772053880.943
1555	700.000	0.019	700.003	0.182	4.130	1772053881.197
1556	700.000	-0.013	700.002	0.104	2.847	1772053881.422
1557	700.000	0.005	700.001	0.125	0.479	1772053881.692
1558	700.000	-0.001	700.004	0.129	4.722	1772053881.921
1559	700.000	0.029	699.999	0.177	2.185	1772053882.195
1560	700.000	0.010	700.001	0.093	5.651	1772053882.451
1561	700.000	0.002	699.998	0.122	3.947	1772053882.746
1562	700.000	0.014	700.001	0.082	1.930	1772053882.981
1563	700.000	0.017	699.999	0.160	4.969	1772053883.251
1564	700.000	-0.004	700.001	0.158	2.989	1772053883.512
1565	700.000	-0.005	700.001	0.035	0.641	1772053883.815
1566	700.000	0.045	699.999	0.149	3.675	1772053884.059
1567	700.000	-0.003	700.001	0.081	2.240	1772053884.327
1568	700.000	-0.012	699.999	0.071	4.928	1772053884.647
1569	700.000	-0.025	700.000	0.116	3.201	1772053884.918
1570	700.000	0.008	699.999	0.070	2.261	1772053885.196
1571	700.000	0.033	699.999	0.135	4.512	1772053885.425
1572	700.000	0.009	700.001	0.166	3.339	1772053885.692
1573	700.000	0.010	700.000	0.115	0.184	1772053885.941
1574	700.000	-0.005	700.002	0.101	4.078	1772053886.185
1575	700.000	-0.025	700.003	0.163	2.102	1772053886.445
1576	700.000	0.016	699.999	0.088	4.940	1772053886.677
1577	700.000	0.001	699.999	0.139	3.663	1772053886.944
1578	700.000	-0.037	699.999	0.187	1.689	1772053887.195
1579	700.000	-0.023	700.001	0.113	5.795	1772053887.452
1580	700.000	0.014	700.001	0.217	3.935	1772053887.701
1581	700.000	0.015	700.002	0.097	1.446	1772053887.949
1582	700.000	0.018	700.001	0.100	4.994	1772053888.194
1583	700.000	0.022	699.999	0.127	3.731	1772053888.416
1584	700.000	-0.014	700.001	0.140	2.023	1772053888.683
1585	700.000	-0.006	700.001	0.069	4.718	1772053888.940
1586	700.000	-0.032	700.001	0.150	3.377	1772053889.256
1587	700.000	-0.036	700.000	0.128	0.191	1772053889.473
1588	700.000	0.021	699.997	0.178	4.576	1772053889.767
1589	700.000	-0.030	700.000	0.132	2.454	1772053890.066
1590	700.000	0.023	699.997	0.143	4.803	1772053890.312
1591	700.000	-0.020	699.999	0.133	3.676	1772053890.588
1592	700.000	-0.015	700.001	0.150	0.661	1772053890.841
1593	700.000	0.005	700.000	0.161	4.733	1772053891.090
1594	700.000	-0.031	700.004	0.142	2.899	1772053891.319
1595	700.000	0.030	699.999	0.095	1.768	1772053891.559
1596	700.000	-0.003	700.002	0.143	4.259	1772053891.831
1597	700.000	-0.006	700.001	0.100	2.586	1772053892.085
1598	700.000	0.010	700.003	0.116	6.181	1772053892.410
1599	700.000	-0.027	700.000	0.181	3.569	1772053892.708
1600	700.000	0.027	700.000	0.145	1.481	1772053892.950
1601	700.000	0.011	700.000	0.116	4.528	1772053893.217
1602	700.000	-0.018	700.002	0.080	3.328	1772053893.447
1603	700.000	-0.029	700.000	0.074	2.039	1772053893.721
1604	700.000	0.005	700.003	0.133	5.184	1772053893.955
1605	700.000	0.010	699.999	0.076	2.551	1772053894.230
1606	700.000	0.008	700.001	0.090	0.129	1772053894.512
1607	700.000	-0.030	700.002	0.133	3.850	1772053894.765
1608	700.000	0.045	699.999	0.104	2.187	1772053895.019
1609	700.000	-0.016	700.002	0.108	5.164	1772053895.335
1610	700.000	0.019	700.001	0.051	3.001	1772053895.562
1611	700.000	0.029	700.000	0.116	1.791	1772053895.814
1612	700.000	0.020	699.998	0.211	4.488	1772053896.072
1613	700.000	0.024	699.997	0.125	3.356	1772053896.338
1614	700.000	-0.020	699.999	0.089	0.772	1772053896.597
1615	700.000	-0.015	699.997	0.090	3.796	1772053896.893
1616	700.000	-0.005	699.998	0.148	2.222	1772053897.138
1617	700.000	0.006	699.998	0.139	5.006	1772053897.403
1618	700.000	0.008	700.000	0.225	3.802	1772053897.683
1619	700.000	0.027	699.999	0.100	1.386	1772053897.993
1620	700.000	-0.012	699.999	0.195	4.310	1772053898.241
1621	700.000	0.015	699.997	0.175	2.897	1772053898.483
1622	700.000	0.011	700.002	0.142	0.368	1772053898.724
1623	700.000	-0.022	699.998	0.166	4.171	1772053898.974
1624	700.000	0.005	700.000	0.182	2.429	1772053899.221
1625	700.000	0.031	700.000	0.098	0.120	1772053899.501
1626	700.000	0.041	700.002	0.194	3.855	1772053899.797
1627	700.000	-0.019	700.000	0.110	1.662	1772053900.038
1628	700.000	0.026	700.001	0.172	4.963	1772053900.269
1629	700.000	-0.017	700.001	0.131	3.370	1772053900.534
1630	700.000	-0.016	699.999	0.118	1.762	1772053900.771
1631	700.000	0.020	699.997	0.200	4.694	1772053901.035
1632	700.000	-0.001	700.001	0.161	3.342	1772053901.295
1633	700.000	0.012	700.001	0.054	5.486	1772053901.609
1634	700.000	-0.010	700.005	0.206	4.054	1772053901.843
1635	700.000	0.003	699.996	0.122	2.539	1772053902.111
1636	700.000	0.024	700.002	0.073	5.686	1772053902.335
1637	700.000	-0.019	699.997	0.246	3.990	1772053902.600
1638	700.000	-0.010	700.003	0.155	1.666	1772053902.850
1639	700.000	-0.011	699.999	0.148	5.137	1772053903.101
1640	700.000	-0.006	699.996	0.159	3.557	1772053903.357
1641	700.000	-0.011	700.001	0.166	1.380	1772053903.571
1642	700.000	-0.015	700.000	0.087	5.256	1772053903.854
1643	700.000	-0.001	700.004	0.188	3.513	1772053904.082
1644	700.000	-0.000	700.000	0.117	1.026	1772053904.347
1645	700.000	0.010	699.997	0.128	4.719	1772053904.563
1646	700.000	-0.021	700.000	0.173	2.605	1772053904.864
1647	700.000	-0.003	700.000	0.022	4.831	1772053905.159
1648	700.000	0.028	700.000	0.139	3.833	1772053905.429
1649	700.000	-0.033	700.000	0.129	2.311	1772053905.661
1650	700.000	-0.016	699.996	0.124	5.469	1772053905.932
1651	700.000	0.002	699.999	0.131	3.863	1772053906.225
1652	700.000	0.016	699.998	0.207	1.505	1772053906.480
1653	700.000	0.007	700.000	0.092	4.373	1772053906.702
1654	700.000	0.052	699.999	0.166	3.379	1772053906.969
1655	700.000	0.014	700.001	0.143	0.873	1772053907.226
1656	700.000	0.008	700.002	0.153	4.885	1772053907.459
1657	700.000	-0.002	700.000	0.111	1.925	1772053907.720
1658	700.000	-0.001	699.999	0.163	0.052	1772053907.976
1659	700.000	0.028	700.000	0.235	4.055	1772053908.225
1660	700.000	-0.064	700.002	0.163	2.158	1772053908.449
1661	700.000	-0.008	700.000	0.118	0.212	1772053908.721
1662	700.000	-0.018	699.997	0.187	4.044	1772053908.975
1663	700.000	-0.015	700.000	0.129	1.971	1772053909.227
1664	700.000	-0.012	699.998	0.137	5.864	1772053909.486
1665	700.000	0.012	700.003	0.222	3.650	1772053909.714
1666	700.000	-0.038	700.000	0.133	1.833	1772053909.992
1667	700.000	0.020	700.001	0.181	5.148	1772053910.218
1668	700.000	-0.012	700.001	0.176	3.345	1772053910.484
1669	700.000	-0.005	700.003	0.076	1.760	1772053910.702
1670	700.000	-0.009	700.000	0.199	5.120	1772053910.981
1671	700.000	-0.016	700.002	0.138	3.573	1772053911.236
1672	700.000	-0.014	700.002	0.063	0.124	1772053911.536
1673	700.000	-0.015	699.999	0.179	3.939	1772053911.767
1674	700.000	0.002	699.997	0.180	2.142	1772053912.053
1675	700.000	-0.040	700.001	0.134	5.304	1772053912.289
1676	700.000	0.002	700.002	0.172	4.091	1772053912.536
1677	700.000	-0.004	699.997	0.120	1.403	1772053912.788
1678	700.000	-0.017	700.000	0.174	5.005	1772053913.029
1679	700.000	-0.004	700.001	0.182	3.870	1772053913.277
1680	700.000	0.013	700.002	0.213	2.345	1772053913.544
1681	700.000	0.032	699.999	0.130	4.518	1772053913.844
1682	700.000	0.025	700.002	0.143	2.728	1772053914.114
1683	700.000	0.016	699.999	0.044	5.646	1772053914.395
1684	700.000	0.016	699.996	0.125	4.265	1772053914.672
1685	700.000	0.013	700.003	0.091	2.149	1772053914.913
1686	700.000	-0.065	700.001	0.118	5.762	1772053915.177
1687	700.000	-0.001	700.000	0.200	3.717	1772053915.399
1688	700.000	-0.020	700.000	0.109	1.970	1772053915.646
1689	700.000	-0.024	700.003	0.057	4.706	1772053915.917
1690	700.000	-0.017	700.001	0.034	3.294	1772053916.158
1691	700.000	-0.004	699.997	0.093	1.928	1772053916.419
1692	700.000	0.002	699.999	0.170	4.974	1772053916.640
1693	700.000	-0.005	700.000	0.063	2.554	1772053916.905
1694	700.000	-0.019	699.993	0.061	1.993	1772053917.155
1695	700.000	-0.010	699.997	0.121	5.270	1772053917.382
1696	700.000	0.031	699.998	0.117	3.197	1772053917.651
1697	700.000	0.008	700.002	0.013	6.059	1772053917.879
1698	700.000	0.029	700.002	0.163	4.484	1772053918.180
1699	700.000	0.007	699.996	0.159	2.853	1772053918.410
1700	700.000	-0.016	700.001	0.080	0.036	1772053918.664
1701	700.000	-0.025	700.000	0.220	3.938	1772053918.911
1702	700.000	-0.022	699.999	0.208	2.275	1772053919.170
1703	700.000	-0.004	699.999	0.124	6.048	1772053919.417
1704	700.000	-0.025	700.002	0.245	3.805	1772053919.640
1705	700.000	-0.045	700.003	0.105	2.382	1772053919.914
1706	700.000	0.009	700.002	0.140	4.842	1772053920.162
1707	700.000	0.007	699.997	0.185	3.308	1772053920.486
1708	700.000	0.024	700.005	0.048	0.584	1772053920.782
1709	700.000	-0.025	699.999	0.163	4.229	1772053921.041
1710	700.000	-0.007	700.002	0.137	2.027	1772053921.284
1711	700.000	-0.002	699.996	0.151	6.037	1772053921.544
1712	700.000	-0.014	700.000	0.120	4.382	1772053921.799
1713	700.000	0.012	699.999	0.111	2.530	1772053922.036
1714	700.000	-0.039	700.002	0.079	5.536	1772053922.273
1715	700.000	0.003	700.000	0.123	3.639	1772053922.537
1716	700.000	0.039	699.999	0.104	1.885	1772053922.792
1717	700.000	-0.075	700.000	0.104	4.957	1772053923.045
1718	700.000	-0.009	699.999	0.134	3.150	1772053923.281
1719	700.000	0.008	700.001	0.147	1.911	1772053923.535
1720	700.000	-0.005	700.005	0.113	4.942	1772053923.787
1721	700.000	-0.018	699.996	0.167	2.932	1772053924.034
1722	700.000	-0.036	699.998	0.092	1.553	1772053924.289
1723	700.000	0.042	700.001	0.162	4.011	1772053924.507
1724	700.000	0.002	700.000	0.094	2.512	1772053924.783
1725	700.000	-0.032	699.997	0.124	0.443	1772053925.037
1726	700.000	-0.025	700.001	0.144	4.082	1772053925.300
1727	700.000	0.016	699.998	0.141	1.904	1772053925.546
1728	700.000	-0.009	700.003	0.081	4.829	1772053925.763
1729	700.000	0.009	700.002	0.135	4.236	1772053926.043
1730	700.000	-0.019	699.998	0.095	2.117	1772053926.320
1731	700.000	0.002	699.999	0.138	4.869	1772053926.609
1732	700.000	0.007	700.000	0.215	3.489	1772053926.856
1733	700.000	-0.015	700.002	0.111	1.766	1772053927.100
1734	700.000	-0.017	700.002	0.189	4.750	1772053927.372
1735	700.000	0.016	700.000	0.093	3.152	1772053927.662
1736	700.000	-0.006	699.999	0.090	0.873	1772053927.909
1737	700.000	-0.001	700.004	0.191	4.483	1772053928.144
1738	700.000	0.058	699.999	0.189	2.495	1772053928.414
1739	700.000	-0.020	700.005	0.065	5.280	1772053928.662
1740	700.000	-0.013	699.998	0.203	4.141	1772053928.891
1741	700.000	-0.017	700.002	0.158	2.458	1772053929.185
1742	700.000	-0.031	699.998	0.113	4.950	1772053929.442
1743	700.000	0.014	699.999	0.121	2.741	1772053929.722
1744	700.000	-0.008	699.999	0.087	2.018	1772053929.953
1745	700.000	-0.018	700.002	0.173	4.803	1772053930.235
1746	700.000	-0.011	699.996	0.140	2.882	1772053930.463
1747	700.000	0.004	700.000	0.043	1.909	1772053930.737
1748	700.000	-0.006	699.998	0.129	4.333	1772053931.012
1749	700.000	0.023	700.001	0.151	2.990	1772053931.292
1750	700.000	0.001	699.997	0.095	5.869	1772053931.515
1751	700.000	-0.009	699.999	0.183	3.820	1772053931.792
1752	700.000	-0.016	699.998	0.075	1.273	1772053932.040
1753	700.000	0.012	699.999	0.123	4.950	1772053932.287
1754	700.000	0.030	700.000	0.129	3.616	1772053932.544
1755	700.000	0.016	699.998	0.055	1.546	1772053932.791
1756	700.000	0.025	699.999	0.152	4.739	1772053933.029
1757	700.000	-0.002	700.000	0.137	3.789	1772053933.261
1758	700.000	-0.016	699.998	0.158	0.956	1772053933.544
1759	700.000	0.002	700.000	0.171	4.642	1772053933.781
1760	700.000	0.019	700.001	0.190	2.655	1772053934.031
1761	700.000	-0.024	700.004	0.066	0.735	1772053934.283
1762	700.000	0.008	700.002	0.152	4.456	1772053934.537
1763	700.000	-0.017	699.999	0.118	2.652	1772053934.807
1764	700.000	0.013	700.000	0.059	5.476	1772053935.054
1765	700.000	-0.046	700.000	0.130	4.075	1772053935.294
1766	700.000	-0.018	699.998	0.226	2.927	1772053935.509
1767	700.000	0.015	700.004	0.047	3.758	1772053935.791
1768	700.000	-0.003	700.002	0.199	4.040	1772053936.035
1769	700.000	-0.007	699.999	0.137	2.025	1772053936.291
1770	700.000	-0.010	700.000	0.099	6.170	1772053936.529
1771	700.000	0.007	700.003	0.258	3.815	1772053936.787
1772	700.000	-0.006	699.999	0.163	2.374	1772053937.037
1773	700.000	-0.009	700.000	0.082	5.414	1772053937.265
1774	700.000	0.016	700.001	0.128	4.114	1772053937.532
1775	700.000	-0.019	700.001	0.093	2.126	1772053937.759
1776	700.000	-0.037	700.003	0.127	4.999	1772053938.019
1777	700.000	0.036	699.999	0.171	3.194	1772053938.272
1778	700.000	-0.005	700.000	0.125	1.317	1772053938.521
1779	700.000	-0.000	699.996	0.209	4.623	1772053938.768
1780	700.000	0.001	699.999	0.309	3.402	1772053939.032
1781	700.000	-0.001	699.998	0.073	0.758	1772053939.283
1782	700.000	-0.001	700.002	0.168	4.616	1772053939.504
1783	700.000	-0.027	700.000	0.133	3.281	1772053939.780
1784	700.000	0.013	700.002	0.049	0.193	1772053940.036
1785	700.000	0.010	699.999	0.172	4.165	1772053940.285
1786	700.000	0.007	699.999	0.102	2.311	1772053940.571
1787	700.000	0.008	700.001	0.155	5.484	1772053940.859
1788	700.000	0.003	700.001	0.198	3.646	1772053941.087
1789	700.000	0.013	700.001	0.146	1.481	1772053941.377
1790	700.000	0.031	700.000	0.153	4.791	1772053941.660
1791	700.000	-0.037	699.996	0.123	3.526	1772053941.909
1792	700.000	-0.018	700.001	0.051	1.320	1772053942.151
1793	700.000	-0.014	699.997	0.194	4.566	1772053942.399
1794	700.000	-0.017	700.000	0.161	2.801	1772053942.637
1795	700.000	0.007	700.004	0.132	0.380	1772053942.915
1796	700.000	0.018	699.997	0.198	3.935	1772053943.161
1797	700.000	0.003	700.002	0.087	2.333	1772053943.393
1798	700.000	-0.019	699.999	0.187	6.165	1772053943.667
1799	700.000	-0.013	699.998	0.178	4.195	1772053943.916
1800	700.000	0.019	700.000	0.160	1.979	1772053944.146
1801	700.000	-0.016	700.000	0.101	5.774	1772053944.401
1802	700.000	0.023	700.001	0.266	3.629	1772053944.650
1803	700.000	0.066	699.999	0.154	1.984	1772053944.916
1804	700.000	0.018	699.996	0.092	5.205	1772053945.177
1805	700.000	0.035	699.999	0.130	3.213	1772053945.457
1806	700.000	-0.004	699.999	0.056	1.077	1772053945.723
1807	700.000	0.014	699.997	0.204	4.008	1772053945.944
1808	700.000	-0.008	700.000	0.176	2.996	1772053946.214
1809	700.000	-0.017	700.002	0.080	5.905	1772053946.449
1810	700.000	0.010	699.999	0.138	4.294	1772053946.719
1811	700.000	-0.023	700.001	0.151	2.296	1772053946.973
1812	700.000	0.009	700.001	0.142	0.052	1772053947.225
1813	700.000	-0.009	700.000	0.226	4.004	1772053947.486
1814	700.000	-0.000	700.001	0.106	1.996	1772053947.702
1815	700.000	-0.008	699.999	0.052	5.925	1772053947.980
1816	700.000	0.022	700.000	0.227	3.948	1772053948.232
1817	700.000	-0.025	699.998	0.055	0.758	1772053948.548
1818	700.000	-0.018	700.004	0.135	4.735	1772053948.795
1819	700.000	-0.020	700.002	0.133	3.447	1772053949.042
1820	700.000	0.019	700.001	0.128	0.499	1772053949.274
1821	700.000	0.012	700.000	0.147	4.658	1772053949.544
1822	700.000	-0.022	700.001	0.113	3.312	1772053949.769
1823	700.000	-0.012	699.996	0.094	1.001	1772053950.053
1824	700.000	0.013	699.999	0.171	4.113	1772053950.295
1825	700.000	-0.014	699.999	0.112	2.302	1772053950.541
1826	700.000	-0.036	700.001	0.031	0.597	1772053950.780
1827	700.000	-0.013	700.000	0.192	4.143	1772053951.016
1828	700.000	0.003	699.999	0.121	2.039	1772053951.283
1829	700.000	-0.003	700.001	0.142	5.737	1772053951.541
1830	700.000	0.016	699.997	0.126	2.803	1772053951.857
1831	700.000	-0.025	700.004	0.038	3.061	1772053952.090
1832	700.000	0.010	700.001	0.107	4.466	1772053952.357
1833	700.000	-0.002	700.000	0.176	3.577	1772053952.580
1834	700.000	-0.048	699.998	0.137	0.886	1772053952.850
1835	700.000	-0.023	700.000	0.227	4.398	1772053953.093
1836	700.000	-0.023	700.002	0.155	3.291	1772053953.346
1837	700.000	-0.002	700.000	0.036	0.178	1772053953.605
1838	700.000	0.002	699.999	0.156	3.936	1772053953.855
1839	700.000	0.035	700.001	0.110	2.441	1772053954.100
1840	700.000	0.009	700.004	0.072	6.092	1772053954.337
1841	700.000	0.025	700.000	0.186	3.785	1772053954.599
1842	700.000	-0.012	700.001	0.138	1.441	1772053954.819
1843	700.000	0.000	699.995	0.057	5.668	1772053955.097
1844	700.000	0.007	699.999	0.227	3.611	1772053955.356
1845	700.000	-0.005	700.000	0.104	1.755	1772053955.600
1846	700.000	-0.010	700.003	0.141	5.185	1772053955.863
1847	700.000	-0.018	699.999	0.169	3.779	1772053956.110
1848	700.000	0.035	700.001	0.096	2.046	1772053956.363
1849	700.000	0.024	700.001	0.079	5.703	1772053956.588
1850	700.000	0.024	700.002	0.154	3.775	1772053956.840
1851	700.000	0.009	699.998	0.087	1.120	1772053957.099
1852	700.000	-0.025	700.000	0.130	4.543	1772053957.366
1853	700.000	0.002	699.997	0.140	2.839	1772053957.648
1854	700.000	0.016	700.001	0.069	4.167	1772053957.912
1855	700.000	-0.009	699.999	0.229	3.667	1772053958.136
1856	700.000	0.012	699.999	0.138	2.030	1772053958.409
1857	700.000	-0.037	700.000	0.091	5.250	1772053958.672
1858	700.000	0.015	699.999	0.205	3.467	1772053958.923
1859	700.000	-0.024	699.997	0.093	1.871	1772053959.164
1860	700.000	-0.012	699.998	0.130	5.010	1772053959.387
1861	700.000	-0.031	699.998	0.117	3.815	1772053959.672
1862	700.000	0.026	700.002	0.031	1.456	1772053959.912
1863	700.000	0.008	699.999	0.174	4.240	1772053960.159
1864	700.000	-0.024	700.000	0.119	3.403	1772053960.395
1865	700.000	0.028	700.001	0.109	0.697	1772053960.658
1866	700.000	0.003	699.996	0.116	4.689	1772053960.915
1867	700.000	0.011	700.000	0.166	2.915	1772053961.154
1868	700.000	-0.013	699.999	0.068	0.872	1772053961.401
1869	700.000	0.028	700.001	0.218	4.335	1772053961.639
1870	700.000	-0.018	700.004	0.184	2.683	1772053961.909
1871	700.000	0.032	700.004	0.202	0.607	1772053962.150
1872	700.000	0.022	699.998	0.170	3.922	1772053962.424
1873	700.000	-0.015	699.999	0.113	1.717	1772053962.677
1874	700.000	0.025	700.000	0.102	6.062	1772053962.932
1875	700.000	-0.005	699.998	0.177	3.745	1772053963.179
1876	700.000	-0.008	700.002	0.095	1.877	1772053963.401
1877	700.000	-0.036	699.999	0.053	5.367	1772053963.675
1878	700.000	0.010	700.001	0.169	3.251	1772053963.916
1879	700.000	0.005	700.001	0.101	1.768	1772053964.191
1880	700.000	-0.013	699.999	0.134	4.390	1772053964.437
1881	700.000	-0.001	700.000	0.171	3.320	1772053964.671
1882	700.000	-0.003	699.998	0.069	0.951	1772053964.940
1883	700.000	-0.053	699.999	0.171	4.065	1772053965.182
1884	700.000	-0.011	699.999	0.185	3.194	1772053965.418
1885	700.000	0.005	700.000	0.064	6.004	1772053965.674
1886	700.000	-0.012	700.000	0.174	3.988	1772053965.934
1887	700.000	-0.001	700.001	0.104	2.853	1772053966.196
1888	700.000	0.005	700.002	0.069	4.838	1772053966.483
1889	700.000	0.010	700.000	0.047	3.006	1772053966.725
1890	700.000	-0.009	700.002	0.062	2.076	1772053966.985
1891	700.000	-0.003	700.003	0.194	4.650	1772053967.216
1892	700.000	0.006	700.000	0.218	3.481	1772053967.494
1893	700.000	0.020	700.003	0.064	1.712	1772053967.738
1894	700.000	-0.006	700.000	0.183	4.429	1772053967.984
1895	700.000	-0.026	700.000	0.149	3.121	1772053968.239
1896	700.000	0.018	699.998	0.076	0.144	1772053968.509
1897	700.000	-0.002	699.998	0.200	3.949	1772053968.792
1898	700.000	0.021	700.002	0.052	2.378	1772053969.056
1899	700.000	0.009	700.001	0.060	4.845	1772053969.350
1900	700.000	-0.022	699.997	0.206	3.878	1772053969.597
1901	700.000	-0.024	700.000	0.094	2.812	1772053969.847
1902	700.000	0.008	700.000	0.093	5.303	1772053970.117
1903	700.000	-0.042	700.000	0.145	3.432	1772053970.354
1904	700.000	0.002	699.997	0.077	0.991	1772053970.640
1905	700.000	-0.036	699.998	0.207	4.351	1772053970.902
1906	700.000	-0.039	699.999	0.192	2.055	1772053971.174
1907	700.000	-0.009	700.001	0.135	0.005	1772053971.415
1908	700.000	0.013	700.001	0.167	4.158	1772053971.686
1909	700.000	0.003	700.001	0.071	2.352	1772053971.941
1910	700.000	0.043	700.002	0.127	4.930	1772053972.189
1911	700.000	-0.025	700.000	0.127	3.775	1772053972.440
1912	700.000	0.029	700.000	0.110	1.448	1772053972.675
1913	700.000	-0.018	699.998	0.151	4.598	1772053972.919
1914	700.000	-0.000	699.999	0.201	3.626	1772053973.154
1915	700.000	-0.044	699.999	0.084	2.264	1772053973.418
1916	700.000	-0.007	700.000	0.165	4.195	1772053973.682
1917	700.000	-0.008	699.997	0.126	3.305	1772053973.943
1918	700.000	-0.021	699.999	0.113	0.608	1772053974.228
1919	700.000	0.017	700.001	0.179	4.249	1772053974.515
1920	700.000	-0.008	699.998	0.168	1.730	1772053974.809
1921	700.000	-0.012	699.998	0.113	5.154	1772053975.053
1922	700.000	0.043	699.998	0.162	3.723	1772053975.302
1923	700.000	0.020	700.001	0.087	1.377	1772053975.551
1924	700.000	0.009	700.000	0.112	4.866	1772053975.776
1925	700.000	0.002	700.005	0.096	3.613	1772053976.055
1926	700.000	0.013	700.003	0.041	0.595	1772053976.301
1927	700.000	0.006	700.001	0.101	4.678	1772053976.578
1928	700.000	0.002	699.996	0.069	2.238	1772053976.850
1929	700.000	-0.019	700.005	0.117	6.273	1772053977.125
1930	700.000	0.023	699.999	0.137	3.952	1772053977.349
1931	700.000	-0.023	699.999	0.139	1.799	1772053977.611
1932	700.000	-0.022	700.000	0.076	5.680	1772053977.862
1933	700.000	0.002	699.998	0.185	3.733	1772053978.078
1934	700.000	0.013	700.004	0.162	1.201	1772053978.353
1935	700.000	-0.054	699.999	0.114	4.972	1772053978.600
1936	700.000	0.053	700.001	0.235	3.611	1772053978.865
1937	700.000	-0.012	699.997	0.108	1.641	1772053979.128
1938	700.000	0.020	699.999	0.041	4.217	1772053979.373
1939	700.000	-0.027	699.999	0.153	3.325	1772053979.633
1940	700.000	0.025	699.998	0.028	1.575	1772053979.869
1941	700.000	-0.007	700.000	0.107	3.854	1772053980.123
1942	700.000	-0.020	699.996	0.112	3.221	1772053980.351
1943	700.000	0.000	700.000	0.079	0.658	1772053980.632
1944	700.000	-0.012	699.999	0.189	4.225	1772053980.857
1945	700.000	-0.006	699.999	0.172	1.992	1772053981.132
1946	700.000	0.044	699.997	0.071	6.133	1772053981.371
1947	700.000	-0.005	700.003	0.222	4.151	1772053981.638
1948	700.000	-0.023	700.001	0.097	1.988	1772053981.889
1949	700.000	0.030	699.999	0.058	5.097	1772053982.139
1950	700.000	-0.013	699.998	0.137	4.188	1772053982.396
1951	700.000	0.001	699.999	0.055	2.450	1772053982.689
1952	700.000	0.008	700.001	0.092	5.445	1772053982.913
1953	700.000	0.005	700.002	0.171	3.442	1772053983.191
1954	700.000	-0.010	700.001	0.031	1.354	1772053983.441
1955	700.000	0.049	700.000	0.114	4.393	1772053983.669
1956	700.000	-0.004	699.999	0.246	3.294	1772053983.945
1957	700.000	0.025	700.004	0.028	1.420	1772053984.178
1958	700.000	0.015	700.001	0.140	3.985	1772053984.437
1959	700.000	-0.026	699.997	0.059	2.574	1772053984.678
1960	700.000	0.047	700.001	0.183	0.153	1772053984.967
1961	700.000	-0.031	699.997	0.233	3.779	1772053985.273
1962	700.000	0.013	700.004	0.086	0.273	1772053985.553
1963	700.000	-0.020	699.997	0.106	4.543	1772053985.826
1964	700.000	0.011	700.000	0.078	3.307	1772053986.068
1965	700.000	0.002	700.004	0.092	0.968	1772053986.316
1966	700.000	0.003	699.999	0.140	4.218	1772053986.560
1967	700.000	-0.006	700.000	0.087	3.118	1772053986.799
1968	700.000	-0.016	699.999	0.053	4.502	1772053987.063
1969	700.000	-0.007	700.000	0.168	4.092	1772053987.313
1970	700.000	-0.024	699.995	0.139	2.188	1772053987.592
1971	700.000	-0.023	700.002	0.112	4.243	1772053987.889
1972	700.000	0.022	700.001	0.157	3.132	1772053988.135
1973	700.000	0.023	699.998	0.088	1.222	1772053988.358
1974	700.000	0.010	699.998	0.058	4.205	1772053988.645
1975	700.000	0.005	699.999	0.128	3.141	1772053988.877
1976	700.000	0.002	699.998	0.135	1.728	1772053989.123
1977	700.000	-0.022	700.002	0.168	4.168	1772053989.376
1978	700.000	0.006	699.999	0.126	3.305	1772053989.636
1979	700.000	0.000	699.999	0.123	0.821	1772053989.878
1980	700.000	-0.011	700.001	0.093	4.061	1772053990.101
1981	700.000	-0.002	699.997	0.116	2.948	1772053990.376
1982	700.000	0.012	699.997	0.085	6.018	1772053990.623
1983	700.000	-0.018	699.998	0.216	4.101	1772053990.882
1984	700.000	0.030	699.998	0.115	2.542	1772053991.131
1985	700.000	0.003	700.000	0.083	5.866	1772053991.403
1986	700.000	0.025	700.001	0.179	3.821	1772053991.686
1987	700.000	0.037	700.000	0.122	1.854	1772053991.947
1988	700.000	-0.018	700.002	0.114	5.208	1772053992.201
1989	700.000	0.006	699.997	0.087	3.719	1772053992.434
1990	700.000	0.019	699.998	0.044	0.651	1772053992.694
1991	700.000	0.009	700.000	0.125	5.010	1772053992.934
1992	700.000	-0.012	700.001	0.080	3.696	1772053993.187
1993	700.000	-0.029	700.000	0.109	1.386	1772053993.423
1994	700.000	-0.019	700.000	0.082	4.142	1772053993.707
1995	700.000	-0.002	699.997	0.086	2.623	1772053993.942
1996	700.000	-0.065	699.998	0.092	0.044	1772053994.189
1997	700.000	-0.009	699.999	0.117	3.968	1772053994.444
1998	700.000	-0.038	700.000	0.063	1.493	1772053994.706
1999	700.000	0.018	700.001	0.062	6.012	1772053994.942
2000	700.000	-0.021	700.001	0.169	4.056	1772053995.200
2001	700.000	-0.001	700.001	0.079	2.333	1772053995.467
2002	700.000	-0.003	700.001	0.128	4.497	1772053995.758
2003	700.000	0.015	700.000	0.184	3.566	1772053995.991
2004	700.000	-0.046	700.003	0.102	1.848	1772053996.224
2005	700.000	-0.009	699.998	0.079	3.947	1772053996.510
2006	700.000	-0.021	700.000	0.120	3.815	1772053996.737
2007	700.000	0.028	699.999	0.034	0.661	1772053997.010
2008	700.000	0.013	700.000	0.124	4.527	1772053997.264
2009	700.000	-0.010	699.999	0.155	3.104	1772053997.497
2010	700.000	0.012	700.001	0.031	1.060	1772053997.748
2011	700.000	0.001	699.995	0.074	4.026	1772053997.972
2012	700.000	0.020	699.999	0.098	3.039	1772053998.245
2013	700.000	-0.027	699.998	0.100	0.181	1772053998.501
2014	700.000	-0.017	699.999	0.060	4.091	1772053998.765
2015	700.000	0.007	700.002	0.115	2.027	1772053999.020
2016	700.000	0.011	700.000	0.092	4.890	1772053999.321
2017	700.000	-0.036	699.995	0.202	3.958	1772053999.543
2018	700.000	0.030	699.998	0.074	2.097	1772053999.814
2019	700.000	-0.010	700.003	0.152	4.400	1772054000.069
2020	700.000	-0.015	699.999	0.072	3.004	1772054000.390
2021	700.000	-0.024	700.000	0.043	0.859	1772054000.657
2022	700.000	-0.024	700.005	0.146	3.975	1772054000.932
2023	700.000	0.046	699.999	0.152	2.096	1772054001.179
2024	700.000	0.025	699.998	0.130	5.374	1772054001.445
2025	700.000	0.025	699.999	0.092	3.808	1772054001.698
2026	700.000	-0.013	700.000	0.108	2.438	1772054001.940
2027	700.000	-0.026	699.996	0.116	5.068	1772054002.180
2028	700.000	0.004	699.999	0.205	3.587	1772054002.442
2029	700.000	-0.017	699.997	0.119	1.770	1772054002.683
2030	700.000	0.004	700.000	0.146	4.293	1772054002.948
2031	700.000	-0.017	700.001	0.123	3.166	1772054003.214
2032	700.000	0.002	700.004	0.094	1.011	1772054003.495
2033	700.000	-0.007	699.999	0.205	3.687	1772054003.745
2034	700.000	0.017	700.000	0.153	2.702	1772054004.028
2035	700.000	0.011	699.994	0.078	4.826	1772054004.327
2036	700.000	0.045	699.997	0.175	3.747	1772054004.568
2037	700.000	-0.005	700.000	0.065	2.111	1772054004.794
2038	700.000	-0.043	700.001	0.179	4.465	1772054005.060
2039	700.000	0.005	700.000	0.172	3.581	1772054005.312
2040	700.000	0.000	700.001	0.043	2.529	1772054005.566
2041	700.000	-0.013	699.999	0.221	4.641	1772054005.814
2042	700.000	0.004	700.002	0.153	2.662	1772054006.082
2043	700.000	0.024	699.997	0.018	2.976	1772054006.313
2044	700.000	0.024	699.998	0.179	4.262	1772054006.544
2045	700.000	-0.016	700.000	0.043	2.074	1772054006.819
2046	700.000	-0.017	700.002	0.053	0.745	1772054007.047
2047	700.000	0.009	700.000	0.141	4.487	1772054007.316
2048	700.000	0.025	699.999	0.118	2.515	1772054007.562
2049	700.000	-0.034	700.000	0.046	5.119	1772054007.799
2050	700.000	-0.002	700.000	0.121	4.234	1772054008.058
2051	700.000	0.021	700.001	0.171	2.122	1772054008.322
2052	700.000	-0.027	700.001	0.097	4.359	1772054008.606
2053	700.000	0.007	699.998	0.129	3.425	1772054008.907
2054	700.000	0.010	699.998	0.053	0.654	1772054009.134
2055	700.000	0.001	700.001	0.212	4.589	1772054009.410
2056	700.000	-0.013	700.000	0.118	2.984	1772054009.660
2057	700.000	0.016	699.998	0.082	0.961	1772054009.957
2058	700.000	-0.006	700.001	0.206	4.553	1772054010.187
2059	700.000	-0.016	699.999	0.110	2.758	1772054010.473
2060	700.000	0.032	700.002	0.089	5.079	1772054010.697
2061	700.000	0.025	700.003	0.164	4.101	1772054010.982
2062	700.000	-0.026	699.998	0.065	1.624	1772054011.241
2063	700.000	0.004	699.997	0.100	4.456	1772054011.530
2064	700.000	0.016	700.000	0.145	3.302	1772054011.758
2065	700.000	0.055	700.001	0.078	0.780	1772054012.022
2066	700.000	-0.022	699.999	0.167	4.514	1772054012.281
2067	700.000	0.009	699.998	0.081	3.361	1772054012.520
2068	700.000	-0.002	700.002	0.008	3.737	1772054012.776
2069	700.000	-0.003	700.001	0.202	4.134	1772054012.986
2070	700.000	0.022	699.999	0.139	2.772	1772054013.285
2071	700.000	-0.001	699.999	0.039	4.376	1772054013.572
2072	700.000	-0.008	699.998	0.116	3.909	1772054013.831
2073	700.000	-0.022	700.000	0.113	1.864	1772054014.084
2074	700.000	0.001	700.002	0.116	5.291	1772054014.372
2075	700.000	-0.052	699.998	0.134	3.281	1772054014.636
2076	700.000	0.016	700.001	0.106	0.601	1772054014.897
2077	700.000	-0.019	700.000	0.136	4.255	1772054015.165
2078	700.000	0.035	699.999	0.069	2.636	1772054015.416
2079	700.000	0.001	700.000	0.086	6.023	1772054015.678
2080	700.000	-0.014	699.998	0.189	4.037	1772054015.908
2081	700.000	-0.033	699.999	0.049	1.486	1772054016.176
2082	700.000	-0.018	700.000	0.058	6.028	1772054016.430
2083	700.000	0.006	699.997	0.127	3.778	1772054016.725
2084	700.000	-0.025	699.999	0.113	1.046	1772054016.986
2085	700.000	-0.003	699.999	0.134	5.056	1772054017.221
2086	700.000	-0.043	700.000	0.138	3.370	1772054017.477
2087	700.000	-0.000	700.003	0.062	1.835	1772054017.701
2088	700.000	-0.014	700.003	0.161	4.418	1772054017.991
2089	700.000	-0.040	699.997	0.117	2.985	1772054018.296
2090	700.000	0.004	700.002	0.041	0.462	1772054018.539
2091	700.000	-0.020	700.000	0.154	4.089	1772054018.778
2092	700.000	0.033	699.999	0.128	2.598	1772054019.041
2093	700.000	0.014	700.001	0.092	5.624	1772054019.277
2094	700.000	-0.001	699.999	0.139	4.131	1772054019.513
2095	700.000	0.031	700.002	0.178	2.474	1772054019.771
2096	700.000	0.034	700.001	0.071	4.387	1772054020.043
2097	700.000	-0.009	699.999	0.132	4.121	1772054020.284
2098	700.000	0.004	700.002	0.123	2.347	1772054020.520
2099	700.000	0.010	700.005	0.142	5.560	1772054020.781
2100	700.000	0.042	699.999	0.087	3.320	1772054021.035
2101	700.000	-0.012	700.000	0.084	1.374	1772054021.315
2102	700.000	0.010	700.001	0.171	4.579	1772054021.649
2103	700.000	-0.023	699.997	0.091	2.831	1772054021.923
2104	700.000	-0.017	699.998	0.108	5.414	1772054022.189
2105	700.000	0.024	700.002	0.190	3.519	1772054022.416
2106	700.000	0.001	699.999	0.056	1.628	1772054022.680
2107	700.000	0.013	699.999	0.154	4.458	1772054022.915
2108	700.000	0.028	699.999	0.161	3.656	1772054023.169
2109	700.000	0.021	700.001	0.101	1.778	1772054023.421
2110	700.000	-0.017	700.001	0.149	4.048	1772054023.671
2111	700.000	0.020	699.999	0.135	3.451	1772054023.922
2112	700.000	0.012	700.002	0.111	1.150	1772054024.152
2113	700.000	-0.000	700.001	0.186	4.241	1772054024.410
2114	700.000	-0.017	700.003	0.054	3.113	1772054024.658
2115	700.000	0.040	700.001	0.025	0.490	1772054024.924
2116	700.000	-0.044	700.000	0.215	3.829	1772054025.183
2117	700.000	0.027	700.001	0.140	3.043	1772054025.431
2118	700.000	-0.023	700.002	0.055	5.705	1772054025.695
2119	700.000	0.018	700.002	0.172	4.236	1772054025.947
2120	700.000	-0.015	700.001	0.060	1.162	1772054026.179
2121	700.000	-0.013	700.003	0.133	0.074	1772054026.414
2122	700.000	-0.021	699.999	0.123	4.372	1772054026.669
2123	700.000	-0.036	700.000	0.116	2.538	1772054026.925
2124	700.000	-0.003	699.998	0.080	5.425	1772054027.190
2125	700.000	-0.036	700.002	0.120	3.670	1772054027.476
2126	700.000	0.013	699.997	0.019	0.499	1772054027.738
2127	700.000	-0.011	700.000	0.167	4.117	1772054027.965
2128	700.000	-0.000	700.002	0.106	3.169	1772054028.234
2129	700.000	0.012	700.002	0.047	6.161	1772054028.501
2130	700.000	0.016	700.001	0.161	4.259	1772054028.802
2131	700.000	-0.010	700.002	0.110	2.874	1772054029.032
2132	700.000	-0.019	700.001	0.152	4.419	1772054029.295
2133	700.000	0.028	700.001	0.114	4.007	1772054029.547
2134	700.000	0.038	700.000	0.080	2.445	1772054029.814
2135	700.000	0.002	700.005	0.200	4.333	1772054030.047
2136	700.000	-0.018	700.004	0.092	3.845	1772054030.319
2137	700.000	-0.003	700.002	0.085	1.140	1772054030.590
2138	700.000	-0.007	700.001	0.193	4.264	1772054030.880
2139	700.000	0.038	700.001	0.123	2.498	1772054031.112
2140	700.000	-0.018	700.000	0.048	5.840	1772054031.383
2141	700.000	0.044	699.999	0.158	4.366	1772054031.613
2142	700.000	0.003	699.999	0.109	2.847	1772054031.871
2143	700.000	0.013	700.002	0.011	4.753	1772054032.121
2144	700.000	-0.026	699.999	0.256	4.267	1772054032.348
2145	700.000	0.015	700.003	0.116	2.597	1772054032.608
2146	700.000	-0.023	699.998	0.125	5.456	1772054032.832
2147	700.000	0.012	700.004	0.158	3.615	1772054033.110
2148	700.000	0.003	699.999	0.035	3.594	1772054033.366
2149	700.000	-0.008	700.001	0.073	4.614	1772054033.684
2150	700.000	-0.006	699.998	0.124	3.150	1772054033.912
2151	700.000	0.019	699.999	0.084	0.453	1772054034.187
2152	700.000	-0.045	699.998	0.161	4.283	1772054034.422
2153	700.000	0.037	700.002	0.151	3.053	1772054034.708
2154	700.000	0.029	699.997	0.081	5.680	1772054034.991
2155	700.000	0.011	699.999	0.094	3.915	1772054035.252
2156	700.000	0.026	700.002	0.116	1.378	1772054035.569
2157	700.000	0.005	700.001	0.126	4.481	1772054035.866
2158	700.000	0.000	699.998	0.145	2.706	1772054036.103
2159	700.000	-0.023	699.999	0.076	5.599	1772054036.378
2160	700.000	-0.003	700.000	0.121	3.465	1772054036.622
2161	700.000	-0.003	700.004	0.065	2.109	1772054036.857
2162	700.000	-0.018	700.002	0.092	4.674	1772054037.140
2163	700.000	-0.001	699.999	0.123	4.186	1772054037.384
2164	700.000	-0.006	700.001	0.140	1.468	1772054037.641
2165	700.000	-0.042	700.001	0.154	4.500	1772054037.889
2166	700.000	0.014	700.001	0.133	3.566	1772054038.127
2167	700.000	0.029	700.001	0.110	1.305	1772054038.366
2168	700.000	-0.019	700.002	0.128	4.907	1772054038.613
2169	700.000	-0.043	700.002	0.150	3.284	1772054038.876
2170	700.000	0.012	699.999	0.094	0.720	1772054039.114
2171	700.000	-0.004	700.000	0.149	4.492	1772054039.377
2172	700.000	0.005	700.000	0.078	2.302	1772054039.638
2173	700.000	0.015	700.000	0.033	5.791	1772054039.901
2174	700.000	0.000	700.000	0.113	4.060	1772054040.185
2175	700.000	-0.012	699.998	0.077	2.652	1772054040.448
2176	700.000	-0.036	700.001	0.118	4.943	1772054040.689
2177	700.000	0.031	699.998	0.079	3.948	1772054040.951
2178	700.000	0.037	700.002	0.050	2.660	1772054041.206
2179	700.000	-0.016	700.000	0.099	5.480	1772054041.462
2180	700.000	-0.055	699.998	0.126	3.368	1772054041.751
2181	700.000	0.020	700.001	0.053	0.792	1772054042.006
2182	700.000	0.054	700.000	0.127	3.720	1772054042.249
2183	700.000	0.019	700.000	0.044	3.771	1772054042.532
2184	700.000	0.026	700.001	0.118	5.425	1772054042.840
2185	700.000	-0.003	700.001	0.119	3.197	1772054043.132
2186	700.000	0.027	699.998	0.064	2.471	1772054043.382
2187	700.000	0.017	700.003	0.168	4.251	1772054043.623
2188	700.000	-0.027	699.997	0.079	3.310	1772054043.852
2189	700.000	0.029	700.002	0.039	0.064	1772054044.138
2190	700.000	-0.020	699.996	0.127	4.831	1772054044.358
2191	700.000	-0.053	699.997	0.083	2.650	1772054044.636
2192	700.000	-0.045	699.999	0.060	6.008	1772054044.865
2193	700.000	-0.028	699.998	0.192	4.231	1772054045.132
2194	700.000	0.007	699.999	0.112	2.798	1772054045.373
2195	700.000	-0.003	700.002	0.034	5.948	1772054045.639
2196	700.000	-0.011	700.005	0.088	3.380	1772054045.881
2197	700.000	0.026	699.999	0.119	2.657	1772054046.114
2198	700.000	-0.020	700.002	0.071	5.385	1772054046.395
2199	700.000	0.003	699.999	0.152	3.957	1772054046.615
2200	700.000	-0.022	700.001	0.147	1.304	1772054046.868
2201	700.000	-0.022	700.001	0.148	4.815	1772054047.129
2202	700.000	-0.007	700.003	0.153	3.579	1772054047.404
2203	700.000	0.014	699.997	0.078	2.223	1772054047.701
2204	700.000	-0.009	699.998	0.155	4.486	1772054047.960
2205	700.000	-0.018	699.998	0.055	3.345	1772054048.185
2206	700.000	0.027	700.001	0.090	6.088	1772054048.459
2207	700.000	0.024	699.999	0.217	4.007	1772054048.690
2208	700.000	-0.013	699.998	0.102	2.976	1772054048.951
2209	700.000	-0.007	700.000	0.054	5.920	1772054049.191
2210	700.000	0.012	699.999	0.065	4.221	1772054049.405
2211	700.000	0.017	699.999	0.122	2.551	1772054049.680
2212	700.000	-0.019	699.999	0.090	5.730	1772054049.922
2213	700.000	-0.008	700.001	0.203	3.688	1772054050.194
2214	700.000	-0.024	700.003	0.070	3.536	1772054050.441
2215	700.000	-0.007	700.002	0.069	4.362	1772054050.725
2216	700.000	-0.014	699.998	0.061	3.352	1772054050.957
2217	700.000	0.031	700.000	0.097	0.903	1772054051.243
2218	700.000	-0.062	699.999	0.146	4.062	1772054051.508
2219	700.000	0.055	699.997	0.045	1.990	1772054051.768
2220	700.000	-0.052	700.000	0.047	5.532	1772054052.010
2221	700.000	-0.008	699.999	0.066	4.113	1772054052.271
2222	700.000	0.026	699.998	0.063	2.572	1772054052.513
2223	700.000	0.033	699.999	0.111	5.660	1772054052.768
2224	700.000	0.006	699.999	0.150	3.756	1772054053.026
2225	700.000	-0.001	699.997	0.149	2.251	1772054053.260
2226	700.000	-0.028	699.999	0.071	4.251	1772054053.521
2227	700.000	0.016	699.999	0.264	3.705	1772054053.749
2228	700.000	0.024	699.998	0.085	2.029	1772054054.003
2229	700.000	0.019	700.002	0.130	4.347	1772054054.260
2230	700.000	0.020	699.998	0.110	3.445	1772054054.539
2231	700.000	0.016	699.997	0.030	2.530	1772054054.824
2232	700.000	-0.026	700.001	0.106	3.885	1772054055.078
2233	700.000	-0.039	699.998	0.166	2.726	1772054055.343
2234	700.000	-0.045	700.001	0.105	5.666	1772054055.603
2235	700.000	-0.019	700.002	0.165	3.734	1772054055.831
2236	700.000	-0.046	700.001	0.130	2.969	1772054056.081
2237	700.000	-0.010	699.998	0.055	4.602	1772054056.321
2238	700.000	-0.038	700.002	0.135	4.112	1772054056.580
2239	700.000	0.042	700.000	0.091	2.775	1772054056.833
2240	700.000	-0.027	700.000	0.139	4.377	1772054057.061
2241	700.000	0.002	699.997	0.216	4.074	1772054057.330
2242	700.000	0.001	700.000	0.066	1.802	1772054057.579
2243	700.000	0.032	699.998	0.162	4.777	1772054057.835
2244	700.000	-0.002	699.999	0.198	3.430	1772054058.091
2245	700.000	-0.010	700.000	0.095	1.205	1772054058.316
2246	700.000	0.007	699.998	0.163	3.903	1772054058.566
2247	700.000	-0.040	700.000	0.158	2.860	1772054058.823
2248	700.000	0.000	699.997	0.032	0.630	1772054059.086
2249	700.000	-0.002	700.001	0.206	4.174	1772054059.308
2250	700.000	0.010	699.999	0.103	3.043	1772054059.596
2251	700.000	-0.035	699.999	0.050	5.345	1772054059.818
2252	700.000	0.042	700.001	0.146	4.238	1772054060.095
2253	700.000	0.009	700.000	0.128	2.945	1772054060.379
2254	700.000	0.014	700.000	0.037	4.692	1772054060.642
2255	700.000	0.025	700.002	0.098	4.247	1772054060.890
2256	700.000	-0.020	700.000	0.075	1.898	1772054061.169
2257	700.000	0.007	700.002	0.159	4.638	1772054061.407
2258	700.000	0.013	700.000	0.056	2.545	1772054061.665
2259	700.000	0.012	700.002	0.057	1.021	1772054061.910
2260	700.000	-0.017	700.002	0.067	5.065	1772054062.176
2261	700.000	-0.011	699.999	0.046	3.364	1772054062.429
2262	700.000	-0.032	700.001	0.047	4.016	1772054062.724
2263	700.000	-0.006	699.997	0.151	3.635	1772054062.987
2264	700.000	0.016	699.999	0.131	1.896	1772054063.225
2265	700.000	0.016	699.997	0.042	5.950	1772054063.485
2266	700.000	-0.002	699.999	0.111	3.587	1772054063.709
2267	700.000	0.009	700.000	0.088	0.866	1772054063.980
2268	700.000	-0.009	700.000	0.087	4.776	1772054064.202
2269	700.000	0.022	699.997	0.162	3.952	1772054064.470
2270	700.000	-0.009	699.999	0.112	1.394	1772054064.710
2271	700.000	0.020	700.001	0.084	4.775	1772054064.950
2272	700.000	-0.013	700.000	0.152	3.439	1772054065.240
2273	700.000	0.009	699.999	0.065	0.341	1772054065.544
2274	700.000	0.023	699.999	0.139	4.063	1772054065.827
2275	700.000	0.008	699.997	0.068	2.840	1772054066.110
2276	700.000	0.023	700.000	0.116	5.327	1772054066.354
2277	700.000	-0.042	700.000	0.137	3.564	1772054066.602
2278	700.000	0.010	699.998	0.151	2.101	1772054066.829
2279	700.000	-0.015	700.001	0.168	4.576	1772054067.091
2280	700.000	0.005	699.998	0.048	3.501	1772054067.344
2281	700.000	0.040	700.002	0.087	1.552	1772054067.568
2282	700.000	-0.005	699.999	0.136	4.357	1772054067.843
2283	700.000	0.003	700.000	0.103	3.281	1772054068.078
2284	700.000	0.002	700.002	0.079	1.604	1772054068.353
2285	700.000	-0.021	699.998	0.147	4.337	1772054068.582
2286	700.000	0.044	700.002	0.104	2.959	1772054068.843
2287	700.000	-0.008	700.004	0.031	5.135	1772054069.102
2288	700.000	-0.026	700.001	0.191	3.957	1772054069.342
2289	700.000	-0.016	699.999	0.116	3.283	1772054069.594
2290	700.000	-0.015	699.996	0.077	1.004	1772054069.870
2291	700.000	-0.015	699.999	0.111	3.981	1772054070.093
2292	700.000	-0.020	700.000	0.127	2.897	1772054070.359
2293	700.000	-0.004	699.999	0.093	5.851	1772054070.625
2294	700.000	-0.046	699.999	0.223	3.908	1772054070.865
2295	700.000	0.013	699.997	0.093	2.115	1772054071.116
2296	700.000	-0.010	700.000	0.160	4.819	1772054071.358
2297	700.000	0.049	700.004	0.127	3.538	1772054071.626
2298	700.000	-0.020	700.000	0.066	1.467	1772054071.866
2299	700.000	-0.017	700.005	0.093	4.239	1772054072.126
2300	700.000	0.041	700.000	0.117	3.258	1772054072.436
2301	700.000	0.020	700.001	0.058	3.063	1772054072.672
2302	700.000	0.012	700.002	0.212	4.105	1772054072.926
2303	700.000	-0.008	700.000	0.112	2.786	1772054073.159
2304	700.000	-0.020	699.998	0.085	2.998	1772054073.434
2305	700.000	0.019	699.997	0.170	3.745	1772054073.658
2306	700.000	0.008	700.002	0.090	2.441	1772054073.932
2307	700.000	-0.008	699.999	0.069	5.607	1772054074.183
2308	700.000	-0.039	700.000	0.135	3.954	1772054074.432
2309	700.000	-0.010	700.001	0.167	1.782	1772054074.665
2310	700.000	-0.015	699.999	0.070	6.124	1772054074.900
2311	700.000	-0.025	699.999	0.149	4.006	1772054075.188
2312	700.000	0.021	699.999	0.082	2.194	1772054075.412
2313	700.000	-0.004	700.003	0.123	4.495	1772054075.698
2314	700.000	0.032	699.998	0.140	3.529	1772054075.984
2315	700.000	0.003	699.997	0.105	1.026	1772054076.244
2316	700.000	0.010	700.001	0.087	4.470	1772054076.474
2317	700.000	-0.015	700.000	0.061	2.156	1772054076.761
2318	700.000	0.013	700.000	0.028	6.107	1772054077.070
2319	700.000	-0.027	700.000	0.178	3.818	1772054077.352
2320	700.000	0.034	699.998	0.129	1.058	1772054077.614
2321	700.000	-0.022	700.002	0.164	4.312	1772054077.860
2322	700.000	-0.006	700.001	0.041	3.608	1772054078.111
2323	700.000	-0.024	699.999	0.071	1.163	1772054078.372
2324	700.000	0.030	700.001	0.141	4.525	1772054078.614
2325	700.000	0.033	699.998	0.127	3.453	1772054078.851
2326	700.000	0.002	699.998	0.042	2.511	1772054079.106
2327	700.000	-0.005	700.000	0.208	4.220	1772054079.382
2328	700.000	-0.002	700.003	0.043	2.560	1772054079.603
2329	700.000	-0.011	700.002	0.059	0.779	1772054079.870
2330	700.000	-0.031	700.002	0.137	3.881	1772054080.116
2331	700.000	0.031	700.002	0.131	3.367	1772054080.355
2332	700.000	0.004	700.001	0.047	0.705	1772054080.612
2333	700.000	-0.001	699.997	0.148	4.527	1772054080.888
2334	700.000	0.007	700.002	0.137	1.565	1772054081.169
2335	700.000	-0.008	700.003	0.016	4.243	1772054081.434
2336	700.000	0.012	699.999	0.173	3.994	1772054081.686
2337	700.000	-0.028	700.002	0.054	1.604	1772054081.924
2338	700.000	0.024	700.002	0.115	4.550	1772054082.168
2339	700.000	0.008	700.000	0.107	3.950	1772054082.397
2340	700.000	0.019	699.999	0.058	1.374	1772054082.684
2341	700.000	-0.008	699.998	0.115	4.495	1772054082.916
2342	700.000	-0.000	699.998	0.070	3.374	1772054083.199
2343	700.000	-0.036	700.002	0.108	0.501	1772054083.430
2344	700.000	0.001	699.998	0.177	4.002	1772054083.693
2345	700.000	-0.006	700.000	0.063	3.421	1772054083.944
2346	700.000	0.015	699.998	0.011	5.844	1772054084.214
2347	700.000	-0.021	700.000	0.120	3.953	1772054084.488
2348	700.000	-0.026	699.998	0.142	2.033	1772054084.758
2349	700.000	-0.014	700.001	0.126	4.852	1772054084.978
2350	700.000	-0.022	699.996	0.131	3.819	1772054085.276
2351	700.000	0.024	699.999	0.095	1.571	1772054085.567
2352	700.000	0.005	699.998	0.167	4.269	1772054085.818
2353	700.000	0.032	700.001	0.116	3.308	1772054086.031
2354	700.000	-0.001	700.000	0.091	0.814	1772054086.316
2355	700.000	-0.023	700.003	0.229	3.897	1772054086.568
2356	700.000	0.009	699.998	0.083	2.984	1772054086.821
2357	700.000	0.001	699.999	0.102	6.269	1772054087.073
2358	700.000	-0.037	700.004	0.183	3.972	1772054087.291
2359	700.000	0.006	700.001	0.060	3.082	1772054087.566
2360	700.000	0.018	700.004	0.019	1.335	1772054087.796
2361	700.000	-0.039	699.999	0.160	3.931	1772054088.066
2362	700.000	-0.020	699.997	0.071	1.843	1772054088.321
2363	700.000	0.006	700.000	0.155	4.569	1772054088.567
2364	700.000	-0.005	700.002	0.172	3.804	1772054088.822
2365	700.000	-0.009	700.001	0.108	2.215	1772054089.067
2366	700.000	0.023	700.004	0.126	4.637	1772054089.308
2367	700.000	0.044	699.999	0.052	4.024	1772054089.560
2368	700.000	-0.027	700.001	0.086	2.569	1772054089.838
2369	700.000	0.034	699.998	0.065	4.244	1772054090.142
2370	700.000	-0.015	699.996	0.071	3.262	1772054090.387
2371	700.000	0.005	700.000	0.045	0.463	1772054090.602
2372	700.000	-0.008	700.002	0.201	3.897	1772054090.874
2373	700.000	0.035	699.999	0.115	2.556	1772054091.118
2374	700.000	-0.019	700.000	0.122	4.867	1772054091.385
2375	700.000	0.010	699.997	0.146	4.139	1772054091.633
2376	700.000	-0.027	700.001	0.091	1.985	1772054091.880
2377	700.000	0.037	700.003	0.063	4.650	1772054092.117
2378	700.000	-0.030	700.001	0.107	4.075	1772054092.387
2379	700.000	-0.010	699.999	0.111	1.865	1772054092.627
2380	700.000	0.011	700.004	0.168	4.292	1772054092.848
2381	700.000	0.039	700.001	0.136	3.018	1772054093.199
2382	700.000	-0.030	700.000	0.070	0.520	1772054093.461
2383	700.000	-0.021	700.000	0.170	3.867	1772054093.774
2384	700.000	0.017	700.001	0.055	1.870	1772054094.072
2385	700.000	0.015	700.000	0.195	3.956	1772054094.329
2386	700.000	0.001	699.999	0.035	4.235	1772054094.578
2387	700.000	0.017	700.000	0.139	1.812	1772054094.807
2388	700.000	-0.008	700.002	0.210	3.980	1772054095.069
2389	700.000	0.019	700.001	0.137	3.091	1772054095.312
2390	700.000	0.007	699.998	0.012	0.192	1772054095.566
2391	700.000	0.019	700.000	0.177	4.451	1772054095.826
2392	700.000	0.013	699.999	0.096	2.871	1772054096.070
2393	700.000	0.009	700.001	0.108	0.380	1772054096.327
2394	700.000	0.011	700.000	0.171	3.472	1772054096.584
2395	700.000	-0.016	700.000	0.074	1.927	1772054096.870
2396	700.000	0.018	699.999	0.110	4.975	1772054097.129
2397	700.000	0.008	700.000	0.082	4.109	1772054097.384
2398	700.000	-0.003	699.999	0.064	1.851	1772054097.661
2399	700.000	0.005	700.001	0.136	4.212	1772054097.919
2400	700.000	-0.028	700.000	0.077	2.185	1772054098.218
2401	700.000	0.007	700.000	0.064	5.785	1772054098.449
2402	700.000	-0.024	700.002	0.202	3.716	1772054098.714
2403	700.000	0.003	700.002	0.161	2.890	1772054098.968
2404	700.000	0.018	699.998	0.174	4.651	1772054099.279
2405	700.000	0.019	699.999	0.146	3.435	1772054099.501
2406	700.000	0.034	699.996	0.086	1.492	1772054099.773
2407	700.000	-0.002	700.001	0.215	4.286	1772054100.008
2408	700.000	-0.016	700.001	0.076	2.718	1772054100.276
2409	700.000	0.041	700.001	0.088	1.764	1772054100.519
2410	700.000	0.031	700.000	0.112	4.456	1772054100.756
2411	700.000	-0.006	700.000	0.115	3.241	1772054101.016
2412	700.000	-0.050	699.998	0.078	0.907	1772054101.253
2413	700.000	-0.000	699.997	0.167	4.005	1772054101.513
2414	700.000	0.017	700.000	0.076	3.348	1772054101.764
2415	700.000	0.021	700.002	0.120	4.289	1772054102.054
2416	700.000	-0.038	700.000	0.166	3.586	1772054102.300
2417	700.000	-0.029	699.997	0.073	2.017	1772054102.570
2418	700.000	-0.031	700.001	0.143	4.486	1772054102.813
2419	700.000	-0.008	699.999	0.162	3.601	1772054103.058
2420	700.000	0.007	700.002	0.080	1.669	1772054103.310
2421	700.000	-0.004	700.003	0.119	4.404	1772054103.566
2422	700.000	0.024	699.999	0.063	3.696	1772054103.804
2423	700.000	0.005	700.003	0.070	1.566	1772054104.034
2424	700.000	-0.015	700.001	0.158	4.470	1772054104.319
2425	700.000	-0.010	699.999	0.078	2.363	1772054104.616
2426	700.000	0.001	700.004	0.123	3.634	1772054104.868
2427	700.000	-0.003	700.001	0.090	3.939	1772054105.125
2428	700.000	0.024	700.001	0.077	1.707	1772054105.376
2429	700.000	0.015	700.002	0.121	4.794	1772054105.603
2430	700.000	0.001	700.001	0.150	3.781	1772054105.859
2431	700.000	0.001	700.000	0.101	1.957	1772054106.115
2432	700.000	-0.015	700.001	0.068	4.238	1772054106.357
2433	700.000	0.008	700.003	0.095	3.647	1772054106.623
2434	700.000	-0.040	699.995	0.075	1.672	1772054106.857
2435	700.000	-0.004	700.000	0.103	4.088	1772054107.115
2436	700.000	0.014	700.002	0.082	2.861	1772054107.359
2437	700.000	-0.026	699.999	0.061	0.723	1772054107.609
2438	700.000	0.003	700.002	0.209	4.181	1772054107.859
2439	700.000	-0.003	700.000	0.071	2.520	1772054108.124
2440	700.000	0.041	700.001	0.079	2.401	1772054108.387
2441	700.000	-0.033	700.001	0.089	4.151	1772054108.680
2442	700.000	0.017	700.000	0.084	2.292	1772054108.910
2443	700.000	0.011	700.003	0.086	4.777	1772054109.178
2444	700.000	0.041	699.999	0.083	4.150	1772054109.432
2445	700.000	-0.001	700.000	0.149	2.589	1772054109.670
2446	700.000	-0.026	699.995	0.071	4.053	1772054109.912
2447	700.000	-0.018	699.995	0.104	3.223	1772054110.161
2448	700.000	-0.001	700.000	0.075	2.091	1772054110.431
2449	700.000	-0.000	700.000	0.253	4.372	1772054110.669
2450	700.000	-0.002	699.999	0.102	3.507	1772054110.909
2451	700.000	-0.004	699.997	0.100	0.630	1772054111.172
2452	700.000	0.005	700.002	0.148	4.153	1772054111.418
2453	700.000	0.017	699.997	0.035	3.174	1772054111.700
2454	700.000	-0.017	700.000	0.042	0.628	1772054111.988
2455	700.000	-0.006	699.998	0.200	3.898	1772054112.241
2456	700.000	0.028	699.999	0.095	1.676	1772054112.512
2457	700.000	-0.024	700.000	0.033	3.620	1772054112.747
2458	700.000	-0.046	699.999	0.078	3.532	1772054113.015
2459	700.000	0.001	699.999	0.117	1.794	1772054113.256
2460	700.000	-0.001	700.001	0.094	4.531	1772054113.494
2461	700.000	-0.007	699.998	0.081	3.051	1772054113.749
2462	700.000	0.010	699.998	0.063	1.713	1772054114.027
2463	700.000	-0.003	699.998	0.123	4.055	1772054114.309
2464	700.000	-0.010	699.999	0.057	3.413	1772054114.571
2465	700.000	0.009	700.004	0.109	0.562	1772054114.810
2466	700.000	-0.010	700.001	0.203	3.900	1772054115.043
2467	700.000	0.001	699.998	0.141	2.951	1772054115.331
2468	700.000	0.011	700.002	0.087	5.842	1772054115.561
2469	700.000	0.012	700.001	0.168	3.632	1772054115.841
2470	700.000	0.011	699.998	0.107	1.883	1772054116.139
2471	700.000	0.027	699.998	0.148	4.133	1772054116.374
2472	700.000	0.013	699.999	0.075	2.374	1772054116.613
2473	700.000	-0.001	700.003	0.023	1.331	1772054116.882
2474	700.000	0.011	699.999	0.210	3.742	1772054117.099
2475	700.000	0.017	700.000	0.103	3.055	1772054117.367
2476	700.000	0.008	700.001	0.108	0.926	1772054117.625
2477	700.000	-0.034	700.000	0.221	4.052	1772054117.876
2478	700.000	0.004	699.998	0.092	2.451	1772054118.143
2479	700.000	0.006	699.998	0.053	5.429	1772054118.388
2480	700.000	0.021	699.999	0.163	4.103	1772054118.631
2481	700.000	0.001	699.996	0.100	1.797	1772054118.903
2482	700.000	0.019	700.000	0.088	4.535	1772054119.177
2483	700.000	-0.012	699.998	0.136	3.584	1772054119.454
2484	700.000	-0.018	700.001	0.122	1.685	1772054119.680
2485	700.000	0.014	700.000	0.124	4.635	1772054119.926
2486	700.000	-0.000	699.998	0.119	3.272	1772054120.201
2487	700.000	0.002	700.001	0.006	2.706	1772054120.431
2488	700.000	0.006	700.000	0.239	4.096	1772054120.699
2489	700.000	-0.007	700.000	0.098	3.044	1772054121.002
2490	700.000	0.010	700.001	0.107	4.516	1772054121.260
2491	700.000	0.016	699.999	0.116	3.870	1772054121.530
2492	700.000	-0.006	699.999	0.077	1.757	1772054121.811
2493	700.000	0.000	700.004	0.173	4.098	1772054122.085
2494	700.000	-0.007	700.003	0.073	3.790	1772054122.318
2495	700.000	0.006	700.000	0.037	2.760	1772054122.584
2496	700.000	0.004	700.001	0.159	3.870	1772054122.821
2497	700.000	-0.031	700.000	0.090	1.837	1772054123.049
2498	700.000	0.008	699.998	0.031	0.150	1772054123.311
2499	700.000	0.011	700.001	0.114	4.105	1772054123.551
2500	700.000	0.033	700.002	0.091	2.621	1772054123.833
2501	700.000	0.006	700.000	0.077	4.972	1772054124.120
2502	700.000	0.005	699.999	0.112	3.770	1772054124.383
2503	700.000	-0.036	700.000	0.106	1.579	1772054124.614
2504	700.000	-0.012	700.002	0.128	4.530	1772054124.886
2505	700.000	-0.009	699.998	0.129	2.881	1772054125.139
2506	700.000	0.019	700.003	0.057	1.746	1772054125.390
2507	700.000	0.006	699.999	0.184	4.582	1772054125.623
2508	700.000	-0.010	700.000	0.101	3.832	1772054125.885
2509	700.000	0.023	699.999	0.058	3.022	1772054126.132
2510	700.000	-0.010	699.999	0.165	4.127	1772054126.383
2511	700.000	0.047	700.003	0.065	2.611	1772054126.641
2512	700.000	-0.013	699.998	0.101	6.226	1772054126.873
2513	700.000	0.023	699.998	0.142	3.974	1772054127.138
2514	700.000	0.031	700.000	0.078	2.504	1772054127.391
2515	700.000	-0.019	700.003	0.126	0.701	1772054127.629
2516	700.000	-0.028	700.002	0.083	4.335	1772054127.868
2517	700.000	-0.023	699.999	0.061	3.391	1772054128.110
2518	700.000	0.012	699.998	0.012	1.918	1772054128.378
2519	700.000	0.007	700.001	0.149	4.710	1772054128.628
2520	700.000	0.011	699.997	0.048	2.682	1772054128.952
2521	700.000	-0.017	699.998	0.171	4.023	1772054129.266
2522	700.000	0.001	700.000	0.148	2.874	1772054129.571
2523	700.000	-0.027	700.001	0.026	4.398	1772054129.820
2524	700.000	0.024	700.004	0.206	3.707	1772054130.066
2525	700.000	-0.008	700.003	0.120	2.997	1772054130.321
2526	700.000	0.013	699.997	0.108	4.405	1772054130.585
2527	700.000	0.001	700.000	0.169	3.893	1772054130.873
2528	700.000	0.004	700.001	0.039	1.234	1772054131.150
2529	700.000	0.016	699.998	0.109	4.210	1772054131.371
2530	700.000	-0.001	699.999	0.091	3.628	1772054131.650
2531	700.000	0.004	699.996	0.024	2.384	1772054131.916
2532	700.000	0.012	699.997	0.200	3.695	1772054132.219
2533	700.000	-0.022	699.999	0.082	1.964	1772054132.444
2534	700.000	0.014	699.999	0.043	5.136	1772054132.721
2535	700.000	0.052	700.002	0.180	3.698	1772054132.954
2536	700.000	-0.001	700.000	0.063	3.319	1772054133.221
2537	700.000	-0.010	700.000	0.061	4.791	1772054133.507
2538	700.000	0.011	700.000	0.180	3.736	1772054133.753
2539	700.000	0.032	700.001	0.105	3.199	1772054134.005
2540	700.000	-0.020	700.000	0.051	0.710	1772054134.272
2541	700.000	0.023	699.999	0.197	3.879	1772054134.519
2542	700.000	0.013	700.000	0.085	2.223	1772054134.789
2543	700.000	0.008	699.999	0.121	4.764	1772054135.039
2544	700.000	-0.020	700.001	0.107	3.600	1772054135.279
2545	700.000	-0.029	699.996	0.044	1.850	1772054135.540
2546	700.000	-0.020	699.999	0.135	4.881	1772054135.771
2547	700.000	0.027	700.001	0.101	3.343	1772054136.031
2548	700.000	-0.010	699.997	0.035	3.223	1772054136.286
2549	700.000	0.017	700.000	0.130	4.008	1772054136.526
2550	700.000	0.000	700.002	0.054	2.781	1772054136.800
2551	700.000	0.030	699.998	0.067	4.476	1772054137.045
2552	700.000	0.000	700.001	0.151	3.809	1772054137.324
2553	700.000	-0.016	699.999	0.064	1.572	1772054137.600
2554	700.000	0.021	700.001	0.163	4.058	1772054137.862
2555	700.000	-0.012	700.001	0.142	2.849	1772054138.169
2556	700.000	-0.032	700.001	0.055	5.565	1772054138.432
2557	700.000	0.008	700.002	0.156	3.836	1772054138.665
2558	700.000	0.032	699.998	0.145	2.811	1772054138.894
2559	700.000	-0.007	700.000	0.088	4.361	1772054139.162
2560	700.000	-0.006	700.000	0.182	3.953	1772054139.404
2561	700.000	-0.004	700.003	0.087	2.233	1772054139.670
2562	700.000	0.001	700.001	0.119	4.288	1772054139.917
2563	700.000	0.002	700.000	0.077	4.065	1772054140.151
2564	700.000	-0.016	699.997	0.063	1.048	1772054140.395
2565	700.000	0.007	699.999	0.137	3.978	1772054140.651
2566	700.000	0.002	700.003	0.147	3.059	1772054140.914
2567	700.000	-0.009	699.999	0.087	0.143	1772054141.161
2568	700.000	-0.004	699.999	0.198	4.384	1772054141.403
2569	700.000	-0.013	699.999	0.077	3.716	1772054141.662
2570	700.000	0.007	700.001	0.034	4.937	1772054141.883
2571	700.000	0.021	699.999	0.095	4.072	1772054142.151
2572	700.000	-0.020	699.996	0.110	3.287	1772054142.390
2573	700.000	-0.012	700.004	0.025	0.586	1772054142.663
2574	700.000	-0.018	700.002	0.088	3.295	1772054142.899
2575	700.000	0.028	700.002	0.080	2.041	1772054143.177
2576	700.000	0.022	700.001	0.101	4.081	1772054143.471
2577	700.000	-0.007	699.999	0.111	3.478	1772054143.735
2578	700.000	0.005	700.001	0.039	1.230	1772054143.963
2579	700.000	-0.013	700.000	0.108	4.452	1772054144.242
2580	700.000	-0.018	700.003	0.116	3.071	1772054144.453
2581	700.000	0.022	700.000	0.103	1.628	1772054144.716
2582	700.000	-0.006	700.003	0.208	3.982	1772054145.001
2583	700.000	0.008	700.001	0.112	3.397	1772054145.276
2584	700.000	0.067	699.997	0.029	4.471	1772054145.534
2585	700.000	0.008	700.003	0.173	3.874	1772054145.778
2586	700.000	-0.008	699.999	0.149	3.118	1772054146.038
2587	700.000	-0.032	700.000	0.047	5.268	1772054146.300
2588	700.000	-0.002	700.003	0.152	3.981	1772054146.559
2589	700.000	-0.014	700.002	0.105	1.233	1772054146.863
2590	700.000	-0.000	699.999	0.074	4.315	1772054147.089
2591	700.000	-0.009	700.003	0.097	3.920	1772054147.342
2592	700.000	0.020	700.002	0.063	1.035	1772054147.602
2593	700.000	-0.019	699.998	0.192	3.939	1772054147.835
2594	700.000	-0.015	699.998	0.041	3.376	1772054148.095
2595	700.000	0.011	700.000	0.073	0.718	1772054148.318
2596	700.000	0.018	700.001	0.153	3.776	1772054148.616
2597	700.000	0.031	700.004	0.102	2.136	1772054148.844
2598	700.000	0.006	700.004	0.030	1.415	1772054149.120
2599	700.000	-0.000	699.999	0.166	4.068	1772054149.354
2600	700.000	-0.006	700.000	0.090	1.304	1772054149.574
2601	700.000	-0.023	699.999	0.047	0.202	1772054149.853
2602	700.000	0.049	700.001	0.239	4.225	1772054150.090
2603	700.000	0.020	700.000	0.081	2.457	1772054150.361
2604	700.000	-0.034	699.999	0.126	5.441	1772054150.604
2605	700.000	0.017	699.998	0.254	3.905	1772054150.856
2606	700.000	0.024	700.002	0.097	2.410	1772054151.118
2607	700.000	0.018	700.001	0.108	4.544	1772054151.421
2608	700.000	-0.005	699.998	0.133	3.440	1772054151.649
2609	700.000	-0.019	700.005	0.091	0.944	1772054151.916
2610	700.000	0.013	700.004	0.160	3.918	1772054152.154
2611	700.000	-0.022	700.001	0.097	3.186	1772054152.442
2612	700.000	-0.026	700.002	0.003	4.712	1772054152.711
2613	700.000	0.019	700.003	0.165	3.375	1772054152.959
2614	700.000	-0.005	700.004	0.048	1.870	1772054153.215
2615	700.000	0.004	699.997	0.020	6.230	1772054153.481
2616	700.000	0.044	700.001	0.194	3.877	1772054153.741
2617	700.000	-0.031	700.002	0.053	2.585	1772054153.986
2618	700.000	0.010	699.997	0.180	4.405	1772054154.247
2619	700.000	0.021	699.999	0.071	4.019	1772054154.545
2620	700.000	-0.016	699.999	0.046	0.787	1772054154.780
2621	700.000	-0.007	699.999	0.180	4.277	1772054155.048
2622	700.000	0.003	699.998	0.111	3.195	1772054155.277
2623	700.000	-0.018	700.002	0.044	0.892	1772054155.508
2624	700.000	-0.018	699.997	0.092	3.791	1772054155.781
2625	700.000	-0.012	700.000	0.094	2.032	1772054156.038
2626	700.000	-0.024	700.000	0.091	5.384	1772054156.356
2627	700.000	0.038	700.003	0.124	3.649	1772054156.655
2628	700.000	-0.008	700.002	0.103	0.842	1772054156.882
2629	700.000	-0.039	700.000	0.177	4.170	1772054157.154
2630	700.000	0.014	700.000	0.051	2.836	1772054157.405
2631	700.000	-0.002	700.000	0.052	0.051	1772054157.695
2632	700.000	-0.012	700.000	0.092	3.924	1772054157.971
2633	700.000	-0.042	700.002	0.058	2.019	1772054158.222
2634	700.000	0.007	700.000	0.084	4.403	1772054158.441
2635	700.000	0.025	699.999	0.152	3.529	1772054158.721
2636	700.000	-0.008	700.001	0.106	1.276	1772054158.976
2637	700.000	-0.040	700.000	0.135	4.092	1772054159.229
2638	700.000	0.003	700.002	0.058	3.893	1772054159.466
2639	700.000	0.005	700.003	0.047	0.571	1772054159.698
2640	700.000	-0.000	699.999	0.148	3.774	1772054159.973
2641	700.000	-0.027	699.996	0.085	1.587	1772054160.216
2642	700.000	-0.012	700.000	0.040	4.970	1772054160.456
2643	700.000	0.015	700.000	0.206	4.209	1772054160.715
2644	700.000	0.025	700.000	0.058	2.753	1772054160.988
2645	700.000	0.010	699.997	0.078	5.824	1772054161.260
2646	700.000	0.003	700.002	0.113	3.923	1772054161.549
2647	700.000	-0.007	700.001	0.112	2.175	1772054161.779
2648	700.000	-0.006	700.001	0.088	5.237	1772054162.051
2649	700.000	-0.010	700.000	0.103	3.679	1772054162.281
2650	700.000	0.031	699.999	0.049	1.479	1772054162.552
2651	700.000	0.003	699.999	0.174	4.438	1772054162.787
2652	700.000	-0.019	700.002	0.158	3.727	1772054163.010
2653	700.000	0.001	700.002	0.087	0.634	1772054163.289
2654	700.000	-0.025	699.998	0.170	3.912	1772054163.519
2655	700.000	-0.000	700.004	0.122	3.779	1772054163.796
2656	700.000	-0.001	699.999	0.114	0.480	1772054164.024
2657	700.000	0.020	700.002	0.155	4.201	1772054164.298
2658	700.000	0.044	700.001	0.076	2.569	1772054164.552
2659	700.000	-0.040	700.000	0.085	5.742	1772054164.851
2660	700.000	0.002	700.002	0.121	3.650	1772054165.152
2661	700.000	-0.014	700.000	0.076	1.799	1772054165.438
2662	700.000	-0.007	699.998	0.161	4.090	1772054165.707
2663	700.000	-0.001	700.001	0.121	3.210	1772054165.931
2664	700.000	0.020	699.999	0.094	6.218	1772054166.202
2665	700.000	-0.034	699.999	0.182	3.745	1772054166.462
2666	700.000	-0.026	700.000	0.016	6.023	1772054166.751
2667	700.000	-0.024	700.001	0.022	4.184	1772054166.983
2668	700.000	-0.015	699.998	0.227	3.262	1772054167.268
2669	700.000	0.015	700.000	0.102	1.617	1772054167.524
2670	700.000	0.013	699.996	0.115	4.170	1772054167.776
2671	700.000	0.015	700.000	0.053	3.792	1772054168.042
2672	700.000	-0.011	699.997	0.080	1.947	1772054168.329
2673	700.000	-0.018	700.001	0.147	3.225	1772054168.585
2674	700.000	-0.006	700.000	0.039	2.414	1772054168.879
2675	700.000	-0.007	700.000	0.034	6.030	1772054169.128
2676	700.000	0.036	700.001	0.174	3.625	1772054169.392
2677	700.000	0.011	700.001	0.148	1.534	1772054169.621
2678	700.000	-0.019	700.001	0.129	4.659	1772054169.900
2679	700.000	0.008	700.000	0.088	3.252	1772054170.187
2680	700.000	-0.040	699.997	0.066	2.166	1772054170.448
2681	700.000	0.007	700.001	0.139	3.911	1772054170.681
2682	700.000	-0.002	700.001	0.087	4.124	1772054170.929
2683	700.000	-0.028	700.000	0.082	1.215	1772054171.173
2684	700.000	0.029	700.001	0.225	3.777	1772054171.441
2685	700.000	-0.040	700.000	0.061	1.968	1772054171.708
2686	700.000	-0.006	699.996	0.121	4.219	1772054172.012
2687	700.000	0.012	700.001	0.154	3.578	1772054172.239
2688	700.000	0.026	700.000	0.090	2.346	1772054172.520
2689	700.000	0.031	700.000	0.204	3.888	1772054172.761
2690	700.000	0.028	699.999	0.083	3.367	1772054173.007
2691	700.000	-0.036	700.000	0.024	5.876	1772054173.261
2692	700.000	-0.013	700.000	0.138	3.760	1772054173.488
2693	700.000	0.021	700.002	0.043	2.378	1772054173.763
2694	700.000	-0.017	699.996	0.053	0.451	1772054173.994
2695	700.000	0.006	700.001	0.176	4.121	1772054174.265
2696	700.000	0.022	700.000	0.115	2.954	1772054174.567
2697	700.000	0.013	700.003	0.059	4.784	1772054174.795
2698	700.000	0.064	699.998	0.165	3.611	1772054175.131
2699	700.000	-0.014	699.998	0.096	1.211	1772054175.416
2700	700.000	-0.034	700.001	0.178	3.671	1772054175.672
2701	700.000	-0.011	700.001	0.037	2.313	1772054175.903
2702	700.000	0.014	700.002	0.039	0.438	1772054176.178
2703	700.000	-0.000	700.002	0.165	3.895	1772054176.477
2704	700.000	-0.048	700.003	0.098	1.938	1772054176.715
2705	700.000	-0.012	700.000	0.084	4.521	1772054176.973
2706	700.000	-0.011	699.997	0.158	3.702	1772054177.236
2707	700.000	-0.010	700.000	0.054	0.713	1772054177.537
2708	700.000	-0.002	699.997	0.188	3.726	1772054177.778
2709	700.000	0.025	700.002	0.186	2.906	1772054178.006
2710	700.000	0.009	700.001	0.023	3.364	1772054178.284
2711	700.000	-0.008	699.999	0.179	3.883	1772054178.507
2712	700.000	0.031	700.001	0.097	3.130	1772054178.790
2713	700.000	0.021	699.998	0.024	2.872	1772054179.077
2714	700.000	-0.019	700.001	0.134	3.640	1772054179.337
2715	700.000	-0.002	700.002	0.050	1.707	1772054179.586
2716	700.000	0.016	699.998	0.149	3.881	1772054179.845
2717	700.000	0.013	700.000	0.090	3.233	1772054180.081
2718	700.000	-0.028	700.001	0.164	3.259	1772054180.363
2719	700.000	0.019	699.997	0.138	3.814	1772054180.622
2720	700.000	-0.010	699.999	0.055	3.930	1772054180.899
2721	700.000	-0.010	699.999	0.072	0.540	1772054181.135
2722	700.000	-0.007	700.000	0.233	4.062	1772054181.377
2723	700.000	0.008	700.001	0.052	1.650	1772054181.646
2724	700.000	0.012	700.003	0.063	3.704	1772054181.918
2725	700.000	-0.009	699.996	0.184	3.931	1772054182.178
2726	700.000	-0.027	700.002	0.054	2.589	1772054182.485
2727	700.000	-0.004	699.999	0.140	3.868	1772054182.764
2728	700.000	0.000	699.999	0.046	1.644	1772054183.020
2729	700.000	0.012	700.002	0.156	0.776	1772054183.245
2730	700.000	0.020	700.001	0.184	3.926	1772054183.527
2731	700.000	-0.012	699.999	0.049	2.537	1772054183.836
2732	700.000	-0.006	700.004	0.177	4.337	1772054184.104
2733	700.000	-0.010	700.001	0.128	3.727	1772054184.341
2734	700.000	0.038	700.003	0.081	2.828	1772054184.586
2735	700.000	0.022	700.000	0.124	3.672	1772054184.812
2736	700.000	-0.014	700.003	0.080	3.546	1772054185.087
2737	700.000	0.037	700.001	0.063	0.676	1772054185.315
2738	700.000	0.021	699.999	0.154	4.034	1772054185.594
2739	700.000	-0.027	700.003	0.029	4.661	1772054185.821
2740	700.000	0.005	699.998	0.130	0.832	1772054186.086
2741	700.000	-0.021	699.998	0.119	3.255	1772054186.326
2742	700.000	-0.015	699.999	0.098	3.108	1772054186.585
2743	700.000	-0.025	700.005	0.005	2.320	1772054186.825
2744	700.000	-0.028	700.000	0.165	4.065	1772054187.075
2745	700.000	-0.020	700.002	0.091	2.784	1772054187.348
2746	700.000	0.017	699.999	0.081	4.893	1772054187.595
2747	700.000	-0.003	700.001	0.171	3.776	1772054187.865
2748	700.000	-0.020	699.999	0.054	2.765	1772054188.104
2749	700.000	0.008	700.000	0.013	4.040	1772054188.346
2750	700.000	-0.021	699.999	0.068	4.079	1772054188.593
2751	700.000	0.004	700.000	0.108	1.685	1772054188.820
2752	700.000	-0.009	699.999	0.129	3.843	1772054189.098
2753	700.000	-0.026	700.000	0.038	3.505	1772054189.343
2754	700.000	0.016	700.004	0.094	2.539	1772054189.597
2755	700.000	-0.013	699.999	0.153	4.192	1772054189.853
2756	700.000	-0.016	699.998	0.079	3.567	1772054190.093
2757	700.000	-0.009	700.002	0.086	0.934	1772054190.349
2758	700.000	-0.002	699.998	0.175	3.805	1772054190.585
2759	700.000	0.039	699.997	0.056	2.648	1772054190.857
2760	700.000	0.007	699.999	0.047	2.682	1772054191.100
2761	700.000	0.000	699.996	0.161	3.746	1772054191.355
2762	700.000	0.010	700.001	0.092	2.931	1772054191.614
2763	700.000	-0.016	700.002	0.091	4.858	1772054191.918
2764	700.000	-0.006	699.999	0.112	2.752	1772054192.147
2765	700.000	0.005	700.000	0.142	1.982	1772054192.391
2766	700.000	0.019	699.999	0.179	4.056	1772054192.666
2767	700.000	-0.027	700.000	0.078	3.826	1772054192.918
2768	700.000	-0.000	699.999	0.066	1.423	1772054193.176
2769	700.000	0.031	699.998	0.169	4.024	1772054193.470
2770	700.000	-0.006	699.998	0.092	2.625	1772054193.699
2771	700.000	-0.013	699.998	0.099	4.379	1772054193.964
2772	700.000	0.011	699.998	0.206	3.847	1772054194.218
2773	700.000	-0.008	700.000	0.087	1.974	1772054194.500
2774	700.000	-0.013	700.000	0.071	4.759	1772054194.781
2775	700.000	-0.021	700.001	0.078	2.925	1772054195.046
2776	700.000	-0.019	699.997	0.023	0.691	1772054195.282
2777	700.000	-0.015	700.001	0.136	4.292	1772054195.545
2778	700.000	-0.021	699.999	0.020	5.828	1772054195.803
2779	700.000	0.061	700.000	0.010	6.124	1772054196.119
2780	700.000	0.043	700.000	0.044	4.232	1772054196.404
2781	700.000	-0.022	700.001	0.072	2.223	1772054196.658
2782	700.000	-0.053	699.999	0.050	4.010	1772054196.903
2783	700.000	0.008	700.000	0.084	3.421	1772054197.182
2784	700.000	-0.029	700.002	0.108	0.688	1772054197.485
2785	700.000	0.006	700.001	0.245	3.907	1772054197.802
2786	700.000	-0.009	700.000	0.057	1.354	1772054198.089
2787	700.000	0.010	699.999	0.186	4.374	1772054198.349
2788	700.000	-0.000	700.000	0.052	2.625	1772054198.591
2789	700.000	-0.020	700.001	0.075	1.303	1772054198.855
2790	700.000	-0.029	699.999	0.198	4.168	1772054199.105
2791	700.000	-0.013	699.999	0.088	3.274	1772054199.356
2792	700.000	0.017	700.001	0.089	0.230	1772054199.619
2793	700.000	0.021	700.001	0.291	3.889	1772054199.916
2794	700.000	-0.003	699.999	0.075	2.487	1772054200.178
2795	700.000	0.032	699.998	0.091	4.503	1772054200.467
2796	700.000	-0.025	700.001	0.144	2.687	1772054200.705
2797	700.000	0.021	700.000	0.064	2.093	1772054200.975
2798	700.000	-0.007	700.000	0.170	4.058	1772054201.201
2799	700.000	-0.046	699.997	0.171	3.421	1772054201.479
2800	700.000	-0.002	700.003	0.065	1.003	1772054201.725
2801	700.000	-0.008	699.999	0.166	4.089	1772054201.972
2802	700.000	0.017	700.000	0.075	2.740	1772054202.246
2803	700.000	0.013	700.000	0.088	4.967	1772054202.513
2804	700.000	-0.019	700.001	0.137	3.720	1772054202.763
2805	700.000	-0.019	699.997	0.090	1.834	1772054203.005
2806	700.000	-0.007	699.994	0.135	4.362	1772054203.257
2807	700.000	-0.018	699.998	0.131	3.850	1772054203.487
2808	700.000	0.011	699.999	0.039	2.040	1772054203.755
2809	700.000	-0.000	700.001	0.173	4.099	1772054203.999
2810	700.000	0.002	699.995	0.032	3.554	1772054204.266
2811	700.000	0.004	699.997	0.062	0.658	1772054204.494
2812	700.000	0.011	700.001	0.156	4.518	1772054204.753
2813	700.000	-0.012	699.997	0.020	2.778	1772054205.013
2814	700.000	0.032	699.997	0.037	2.925	1772054205.237
2815	700.000	-0.011	700.002	0.104	4.411	1772054205.509
2816	700.000	0.041	700.000	0.036	3.632	1772054205.734
2817	700.000	0.035	700.001	0.088	0.138	1772054205.998
2818	700.000	0.011	700.002	0.201	3.676	1772054206.255
2819	700.000	0.017	700.001	0.111	1.907	1772054206.553
2820	700.000	0.006	700.000	0.089	4.304	1772054206.831
2821	700.000	-0.023	700.000	0.030	3.572	1772054207.105
2822	700.000	0.010	699.998	0.075	1.286	1772054207.334
2823	700.000	-0.005	700.000	0.162	3.688	1772054207.600
2824	700.000	-0.042	699.997	0.062	3.928	1772054207.817
2825	700.000	0.000	700.002	0.066	1.642	1772054208.113
2826	700.000	-0.027	700.003	0.188	4.138	1772054208.391
2827	700.000	0.010	699.999	0.054	2.787	1772054208.667
2828	700.000	0.015	699.996	0.044	4.188	1772054208.901
2829	700.000	0.009	699.997	0.212	3.729	1772054209.178
2830	700.000	-0.022	699.998	0.045	1.228	1772054209.466
2831	700.000	0.012	700.002	0.193	4.122	1772054209.735
2832	700.000	0.033	700.003	0.097	3.365	1772054209.990
2833	700.000	-0.004	699.998	0.065	2.540	1772054210.244
2834	700.000	-0.001	699.998	0.239	3.663	1772054210.547
2835	700.000	-0.036	700.001	0.042	1.581	1772054210.792
2836	700.000	-0.012	699.997	0.088	0.596	1772054211.024
2837	700.000	0.032	699.999	0.254	3.647	1772054211.266
2838	700.000	-0.018	700.001	0.025	3.109	1772054211.530
2839	700.000	0.033	699.999	0.061	2.945	1772054211.801
2840	700.000	-0.000	699.999	0.138	3.748	1772054212.105
2841	700.000	0.019	699.998	0.115	1.797	1772054212.343
2842	700.000	-0.000	700.002	0.089	5.145	1772054212.612
2843	700.000	-0.013	700.001	0.186	3.874	1772054212.865
2844	700.000	-0.004	699.999	0.087	2.053	1772054213.131
2845	700.000	-0.004	699.999	0.073	3.922	1772054213.407
2846	700.000	0.005	699.999	0.061	3.739	1772054213.641
2847	700.000	0.044	700.000	0.073	3.682	1772054213.919
2848	700.000	0.005	700.002	0.152	3.801	1772054214.169
2849	700.000	0.033	699.999	0.055	1.213	1772054214.398
2850	700.000	-0.025	700.003	0.073	0.094	1772054214.625
2851	700.000	-0.014	700.000	0.209	3.803	1772054214.899
2852	700.000	-0.028	699.999	0.025	2.691	1772054215.155
2853	700.000	-0.023	699.998	0.034	4.214	1772054215.460
2854	700.000	0.016	699.997	0.070	3.515	1772054215.698
2855	700.000	-0.024	700.000	0.083	1.205	1772054215.952
2856	700.000	-0.039	700.002	0.164	3.860	1772054216.203
2857	700.000	0.023	700.000	0.061	0.426	1772054216.469
2858	700.000	0.007	699.998	0.034	5.988	1772054216.706
2859	700.000	0.008	700.004	0.212	3.705	1772054216.966
2860	700.000	0.010	699.997	0.037	3.610	1772054217.224
2861	700.000	-0.015	699.997	0.100	5.948	1772054217.467
2862	700.000	0.015	700.001	0.212	3.385	1772054217.724
2863	700.000	-0.038	700.001	0.110	1.952	1772054218.017
2864	700.000	-0.012	699.998	0.140	4.093	1772054218.264
2865	700.000	-0.016	699.998	0.092	3.888	1772054218.521
2866	700.000	-0.009	700.000	0.053	1.499	1772054218.769
2867	700.000	-0.008	700.000	0.132	4.150	1772054219.005
2868	700.000	0.005	699.999	0.011	5.375	1772054219.266
2869	700.000	-0.005	700.001	0.144	0.868	1772054219.491
2870	700.000	-0.024	700.001	0.230	3.834	1772054219.759
2871	700.000	0.018	700.001	0.053	3.698	1772054220.023
2872	700.000	-0.003	700.001	0.075	0.602	1772054220.258
2873	700.000	0.007	700.002	0.208	4.076	1772054220.515
2874	700.000	-0.016	700.002	0.110	2.734	1772054220.734
2875	700.000	-0.008	700.001	0.059	0.539	1772054221.013
2876	700.000	-0.041	700.000	0.174	3.821	1772054221.260
2877	700.000	-0.014	700.001	0.077	2.776	1772054221.521
2878	700.000	0.015	700.001	0.044	0.608	1772054221.753
2879	700.000	-0.027	700.001	0.234	3.806	1772054222.025
2880	700.000	0.009	699.997	0.059	0.833	1772054222.293
2881	700.000	-0.006	699.996	0.109	4.357	1772054222.606
2882	700.000	0.001	700.000	0.018	3.457	1772054222.901
2883	700.000	0.000	700.000	0.074	1.531	1772054223.156
2884	700.000	-0.033	699.998	0.171	3.781	1772054223.392
2885	700.000	-0.001	699.999	0.047	2.757	1772054223.654
2886	700.000	-0.011	700.001	0.087	6.065	1772054223.891
2887	700.000	0.028	700.001	0.100	3.564	1772054224.210
2888	700.000	-0.025	700.001	0.082	1.935	1772054224.461
2889	700.000	0.008	699.997	0.138	4.011	1772054224.682
2890	700.000	0.037	699.999	0.156	4.020	1772054224.955
2891	700.000	0.006	700.000	0.088	1.693	1772054225.210
2892	700.000	0.017	700.001	0.152	4.223	1772054225.445
2893	700.000	0.034	700.000	0.072	2.295	1772054225.745
2894	700.000	0.004	700.001	0.046	1.128	1772054225.974
2895	700.000	-0.017	699.999	0.211	3.690	1772054226.233
2896	700.000	-0.025	699.997	0.055	2.186	1772054226.470
2897	700.000	0.007	700.000	0.112	1.326	1772054226.722
2898	700.000	0.019	700.004	0.237	4.091	1772054226.971
2899	700.000	0.007	700.000	0.076	1.833	1772054227.226
2900	700.000	0.016	699.999	0.028	4.822	1772054227.491
2901	700.000	0.013	699.999	0.158	3.683	1772054227.712
2902	700.000	-0.026	699.997	0.098	1.688	1772054227.970
2903	700.000	0.017	700.001	0.097	4.406	1772054228.208
2904	700.000	-0.019	700.004	0.174	3.626	1772054228.481
2905	700.000	-0.005	700.002	0.061	1.511	1772054228.725
2906	700.000	-0.022	699.999	0.147	4.256	1772054229.030
2907	700.000	-0.027	700.003	0.048	4.235	1772054229.315
2908	700.000	-0.023	700.000	0.045	4.316	1772054229.570
2909	700.000	-0.024	700.000	0.107	3.980	1772054229.801
2910	700.000	0.010	700.001	0.034	2.426	1772054230.084
2911	700.000	0.015	700.000	0.066	4.401	1772054230.311
2912	700.000	-0.010	699.998	0.146	3.795	1772054230.567
2913	700.000	0.008	699.998	0.059	2.238	1772054230.811
2914	700.000	-0.022	699.998	0.007	3.575	1772054231.049
2915	700.000	-0.003	699.999	0.163	3.740	1772054231.305
2916	700.000	0.021	699.999	0.110	1.168	1772054231.549
2917	700.000	0.009	699.997	0.039	5.212	1772054231.820
2918	700.000	-0.001	700.001	0.106	3.933	1772054232.056
2919	700.000	-0.021	700.003	0.101	1.376	1772054232.314
2920	700.000	0.021	699.998	0.161	3.988	1772054232.567
2921	700.000	0.053	700.003	0.135	3.484	1772054232.796
2922	700.000	-0.002	700.001	0.040	2.515	1772054233.053
2923	700.000	0.024	700.003	0.185	3.917	1772054233.292
2924	700.000	0.000	700.000	0.084	3.849	1772054233.554
2925	700.000	0.009	700.001	0.069	1.242	1772054233.798
2926	700.000	0.019	699.998	0.138	3.867	1772054234.063
2927	700.000	-0.017	700.002	0.087	3.168	1772054234.321
2928	700.000	-0.035	699.999	0.036	1.373	1772054234.540
2929	700.000	-0.006	700.002	0.141	3.949	1772054234.808
2930	700.000	-0.068	700.001	0.033	5.734	1772054235.053
2931	700.000	0.014	700.003	0.079	0.159	1772054235.308
2932	700.000	-0.035	700.000	0.179	3.950	1772054235.529
2933	700.000	0.004	699.997	0.102	3.168	1772054235.816
2934	700.000	-0.005	700.001	0.069	5.645	1772054236.063
2935	700.000	0.022	700.001	0.210	3.830	1772054236.296
2936	700.000	-0.027	700.002	0.077	1.288	1772054236.555
2937	700.000	0.008	700.000	0.062	3.942	1772054236.796
2938	700.000	-0.018	699.997	0.161	4.083	1772054237.044
2939	700.000	-0.017	700.000	0.045	3.201	1772054237.293
2940	700.000	0.005	699.999	0.124	3.907	1772054237.560
2941	700.000	-0.022	699.996	0.094	3.254	1772054237.802
2942	700.000	0.029	700.000	0.038	1.831	1772054238.039
2943	700.000	0.003	700.001	0.072	4.565	1772054238.315
2944	700.000	0.019	699.998	0.183	3.859	1772054238.554
2945	700.000	0.005	699.996	0.127	3.493	1772054238.801
2946	700.000	0.027	699.998	0.087	2.592	1772054239.045
2947	700.000	-0.009	700.000	0.061	3.753	1772054239.313
2948	700.000	0.012	699.998	0.112	3.514	1772054239.540
2949	700.000	-0.000	699.997	0.022	1.917	1772054239.823
2950	700.000	-0.014	700.001	0.091	5.475	1772054240.064
2951	700.000	0.005	700.000	0.273	4.209	1772054240.321
2952	700.000	0.004	699.999	0.067	3.452	1772054240.571
2953	700.000	-0.011	700.001	0.053	5.098	1772054240.852
2954	700.000	0.006	700.000	0.003	6.116	1772054241.144
2955	700.000	-0.017	699.999	0.182	3.929	1772054241.407
2956	700.000	-0.008	700.001	0.043	3.674	1772054241.648
2957	700.000	-0.022	700.000	0.044	5.166	1772054241.910
2958	700.000	0.020	699.999	0.120	3.259	1772054242.196
2959	700.000	0.001	700.000	0.065	1.366	1772054242.463
2960	700.000	0.009	699.997	0.201	4.282	1772054242.719
2961	700.000	0.021	699.999	0.179	3.582	1772054242.971
2962	700.000	-0.042	700.001	0.114	1.150	1772054243.232
2963	700.000	-0.017	700.001	0.204	3.826	1772054243.519
2964	700.000	-0.005	699.999	0.050	2.985	1772054243.757
2965	700.000	-0.019	699.997	0.100	4.503	1772054244.032
2966	700.000	-0.021	700.007	0.208	3.798	1772054244.266
2967	700.000	-0.010	700.001	0.089	1.028	1772054244.540
2968	700.000	0.004	699.999	0.113	4.552	1772054244.821
2969	700.000	-0.034	700.000	0.042	2.648	1772054245.090
2970	700.000	0.004	699.995	0.058	1.006	1772054245.309
2971	700.000	-0.031	700.002	0.126	3.913	1772054245.575
2972	700.000	-0.008	699.997	0.097	3.590	1772054245.829
2973	700.000	0.016	699.997	0.058	0.959	1772054246.101
2974	700.000	0.007	699.998	0.124	3.690	1772054246.375
2975	700.000	0.011	700.000	0.072	1.398	1772054246.651
2976	700.000	0.001	700.000	0.106	3.916	1772054246.884
2977	700.000	0.016	699.999	0.071	4.067	1772054247.144
2978	700.000	-0.010	699.999	0.047	1.791	1772054247.402
2979	700.000	-0.013	700.001	0.192	4.383	1772054247.639
2980	700.000	0.002	700.002	0.121	3.608	1772054247.916
2981	700.000	0.038	700.002	0.125	1.305	1772054248.181
2982	700.000	-0.009	699.998	0.147	3.376	1772054248.446
2983	700.000	-0.038	700.002	0.047	3.965	1772054248.736
2984	700.000	-0.005	700.003	0.086	5.294	1772054248.994
2985	700.000	-0.006	699.998	0.258	3.338	1772054249.243
2986	700.000	0.015	699.999	0.095	2.104	1772054249.493
2987	700.000	-0.015	699.999	0.058	5.430	1772054249.747
2988	700.000	-0.000	700.002	0.140	3.473	1772054249.983
2989	700.000	0.009	700.000	0.097	3.055	1772054250.216
2990	700.000	-0.027	700.000	0.055	5.560	1772054250.491
2991	700.000	-0.042	700.001	0.072	4.221	1772054250.744
2992	700.000	0.013	700.002	0.181	0.844	1772054251.003
2993	700.000	-0.001	700.000	0.164	4.155	1772054251.294
2994	700.000	0.023	700.001	0.029	2.915	1772054251.563
2995	700.000	0.002	700.000	0.061	6.232	1772054251.870
2996	700.000	-0.039	700.001	0.124	3.099	1772054252.149
2997	700.000	0.005	699.997	0.052	0.421	1772054252.441
2998	700.000	-0.018	700.000	0.137	4.054	1772054252.693
2999	700.000	0.006	700.001	0.105	3.128	1772054252.964
3000	700.000	-0.000	699.999	0.080	6.253	1772054253.177
3001	700.000	0.035	700.002	0.176	3.810	1772054253.446
3002	700.000	0.015	700.002	0.095	3.877	1772054253.702
3003	700.000	-0.010	700.003	0.076	0.167	1772054253.937
3004	700.000	-0.015	700.000	0.252	3.740	1772054254.206
3005	700.000	0.024	699.999	0.077	0.551	1772054254.424
3006	700.000	-0.023	700.002	0.085	5.884	1772054254.696
3007	700.000	-0.001	700.002	0.227	3.635	1772054254.928
3008	700.000	0.021	699.998	0.046	2.070	1772054255.205
3009	700.000	0.018	700.001	0.112	4.535	1772054255.490
3010	700.000	0.007	699.998	0.182	3.801	1772054255.771
3011	700.000	-0.018	700.001	0.082	1.019	1772054256.047
3012	700.000	-0.011	699.999	0.146	3.873	1772054256.329
3013	700.000	0.014	699.999	0.043	2.642	1772054256.602
3014	700.000	0.005	700.001	0.023	5.568	1772054256.840
3015	700.000	-0.011	700.001	0.201	3.496	1772054257.099
3016	700.000	0.010	699.997	0.019	3.384	1772054257.386
3017	700.000	-0.015	699.998	0.148	4.855	1772054257.651
3018	700.000	0.008	700.001	0.118	3.527	1772054257.901
3019	700.000	-0.004	700.001	0.050	2.102	1772054258.153
3020	700.000	-0.001	700.000	0.063	4.926	1772054258.387
3021	700.000	0.043	700.002	0.137	3.415	1772054258.628
3022	700.000	0.001	699.995	0.073	1.137	1772054258.909
3023	700.000	0.020	699.999	0.180	4.724	1772054259.139
3024	700.000	0.042	699.999	0.130	3.193	1772054259.401
3025	700.000	-0.018	699.999	0.101	0.652	1772054259.641
3026	700.000	0.016	700.000	0.284	3.750	1772054259.863
3027	700.000	0.016	699.998	0.135	3.387	1772054260.141
3028	700.000	0.007	699.998	0.117	5.139	1772054260.371
3029	700.000	-0.005	700.000	0.246	3.547	1772054260.669
3030	700.000	-0.002	699.996	0.061	1.698	1772054260.897
3031	700.000	-0.022	699.998	0.085	6.070	1772054261.171
3032	700.000	-0.003	699.999	0.234	3.403	1772054261.464
3033	700.000	-0.002	700.000	0.136	1.417	1772054261.720
3034	700.000	-0.012	700.000	0.154	4.184	1772054261.942
3035	700.000	-0.005	699.998	0.154	3.165	1772054262.214
3036	700.000	-0.010	700.000	0.026	0.421	1772054262.464
3037	700.000	0.021	699.999	0.167	4.752	1772054262.710
3038	700.000	0.001	700.003	0.138	3.575	1772054262.945
3039	700.000	0.011	699.998	0.079	0.633	1772054263.203
3040	700.000	-0.006	699.999	0.244	3.715	1772054263.444
3041	700.000	0.001	700.000	0.065	4.066	1772054263.701
3042	700.000	0.016	699.999	0.087	0.010	1772054263.955
3043	700.000	0.039	700.001	0.355	3.591	1772054264.207
3044	700.000	-0.005	700.000	0.047	0.528	1772054264.449
3045	700.000	0.016	700.004	0.117	6.061	1772054264.704
3046	700.000	0.031	700.001	0.247	3.677	1772054264.952
3047	700.000	0.011	700.000	0.056	1.943	1772054265.215
3048	700.000	-0.043	700.001	0.032	0.285	1772054265.437
3049	700.000	0.002	700.000	0.188	3.577	1772054265.724
3050	700.000	-0.049	700.002	0.027	3.034	1772054265.958
3051	700.000	-0.040	699.999	0.078	4.819	1772054266.234
3052	700.000	0.005	700.001	0.138	3.494	1772054266.490
3053	700.000	-0.010	700.001	0.042	0.665	1772054266.746
3054	700.000	-0.005	700.001	0.127	4.333	1772054266.987
3055	700.000	-0.011	699.999	0.140	3.353	1772054267.250
3056	700.000	0.003	700.002	0.049	5.177	1772054267.489
3057	700.000	-0.022	700.001	0.076	4.547	1772054267.711
3058	700.000	-0.039	700.000	0.127	3.144	1772054267.977
3059	700.000	-0.011	700.002	0.092	0.738	1772054268.235
3060	700.000	0.019	700.003	0.198	3.760	1772054268.487
3061	700.000	0.000	700.000	0.032	0.681	1772054268.739
3062	700.000	0.009	700.005	0.053	5.165	1772054269.001
3063	700.000	-0.021	699.997	0.229	3.602	1772054269.262
3064	700.000	0.017	699.999	0.061	0.875	1772054269.547
3065	700.000	0.005	700.001	0.138	4.947	1772054269.781
3066	700.000	-0.022	700.000	0.228	3.572	1772054270.054
3067	700.000	0.004	699.998	0.066	0.859	1772054270.303
3068	700.000	0.006	700.000	0.170	4.417	1772054270.550
3069	700.000	0.021	699.999	0.091	3.157	1772054270.801
3070	700.000	-0.006	699.999	0.062	0.871	1772054271.035
3071	700.000	-0.000	700.001	0.132	4.179	1772054271.287
3072	700.000	0.001	700.001	0.103	2.959	1772054271.556
3073	700.000	0.026	700.001	0.064	1.304	1772054271.809
3074	700.000	-0.018	700.000	0.188	3.924	1772054272.030
3075	700.000	0.024	700.001	0.231	3.447	1772054272.300
3076	700.000	0.008	700.001	0.128	3.333	1772054272.556
3077	700.000	-0.022	699.996	0.051	0.574	1772054272.811
3078	700.000	-0.005	700.000	0.114	0.754	1772054273.051
3079	700.000	0.012	699.999	0.098	5.256	1772054273.310
3080	700.000	0.039	700.000	0.134	3.721	1772054273.559
3081	700.000	0.001	700.000	0.047	3.902	1772054273.796
3082	700.000	-0.025	699.999	0.146	3.847	1772054274.049
3083	700.000	0.032	700.000	0.080	0.144	1772054274.293
3084	700.000	0.033	699.999	0.169	3.410	1772054274.573
3085	700.000	0.020	699.999	0.059	4.779	1772054274.859
3086	700.000	0.021	700.000	0.183	3.434	1772054275.119
3087	700.000	0.014	700.003	0.071	1.416	1772054275.341
3088	700.000	-0.015	700.003	0.086	5.168	1772054275.606
3089	700.000	0.008	699.999	0.081	1.433	1772054275.848
3090	700.000	-0.010	700.002	0.117	3.841	1772054276.127
3091	700.000	0.008	699.998	0.111	3.323	1772054276.385
3092	700.000	0.022	700.002	0.044	0.672	1772054276.682
3093	700.000	0.014	700.003	0.122	3.725	1772054276.919
3094	700.000	-0.039	700.003	0.096	2.542	1772054277.174
3095	700.000	-0.012	699.999	0.101	6.112	1772054277.434
3096	700.000	-0.000	699.997	0.189	3.361	1772054277.741
3097	700.000	-0.027	700.000	0.082	1.433	1772054277.973
3098	700.000	0.033	700.001	0.095	5.181	1772054278.255
3099	700.000	0.002	699.997	0.170	3.035	1772054278.504
3100	700.000	-0.025	700.003	0.071	6.277	1772054278.804
3101	700.000	0.020	700.001	0.170	3.818	1772054279.032
3102	700.000	-0.000	700.000	0.062	2.081	1772054279.292
3103	700.000	0.019	699.998	0.057	1.313	1772054279.539
3104	700.000	0.016	699.998	0.235	3.640	1772054279.822
3105	700.000	-0.019	700.003	0.092	0.893	1772054280.091
3106	700.000	0.015	700.000	0.057	4.969	1772054280.362
3107	700.000	0.004	699.997	0.220	3.054	1772054280.599
3108	700.000	0.020	699.999	0.069	6.142	1772054280.882
3109	700.000	0.006	699.999	0.141	3.933	1772054281.182
3110	700.000	0.007	699.999	0.090	3.405	1772054281.427
3111	700.000	0.027	699.998	0.144	0.313	1772054281.682
3112	700.000	-0.019	700.000	0.178	3.728	1772054281.961
3113	700.000	-0.014	700.001	0.042	4.190	1772054282.186
3114	700.000	-0.008	700.000	0.080	5.688	1772054282.450
3115	700.000	0.001	700.000	0.091	3.048	1772054282.690
3116	700.000	-0.007	699.998	0.034	2.030	1772054282.966
3117	700.000	-0.008	699.997	0.076	5.102	1772054283.251
3118	700.000	0.004	700.001	0.198	4.168	1772054283.506
3119	700.000	-0.017	699.999	0.150	3.409	1772054283.769
3120	700.000	0.023	700.002	0.179	3.047	1772054284.011
3121	700.000	0.006	699.999	0.129	1.298	1772054284.267
3122	700.000	-0.004	700.001	0.143	3.879	1772054284.581
3123	700.000	-0.057	699.998	0.172	2.601	1772054284.885
3124	700.000	-0.009	700.004	0.066	0.001	1772054285.142
3125	700.000	0.018	700.000	0.101	3.625	1772054285.383
3126	700.000	0.042	699.999	0.076	1.367	1772054285.637
3127	700.000	-0.014	700.002	0.096	2.232	1772054285.868
3128	700.000	-0.005	699.998	0.116	5.607	1772054286.118
3129	700.000	0.007	699.999	0.247	3.564	1772054286.369
3130	700.000	-0.004	699.997	0.059	1.741	1772054286.642
3131	700.000	-0.028	699.999	0.065	4.541	1772054286.892
3132	700.000	0.004	700.001	0.193	3.517	1772054287.166
3133	700.000	0.010	699.998	0.043	3.744	1772054287.447
3134	700.000	0.028	699.998	0.087	0.624	1772054287.718
3135	700.000	0.029	699.999	0.096	0.247	1772054287.944
3136	700.000	0.024	699.999	0.080	5.779	1772054288.218
3137	700.000	0.062	699.996	0.143	4.520	1772054288.460
3138	700.000	-0.025	699.997	0.172	4.002	1772054288.736
3139	700.000	0.010	700.001	0.116	3.340	1772054289.014
3140	700.000	0.001	700.001	0.149	3.036	1772054289.276
3141	700.000	0.013	699.999	0.196	3.145	1772054289.517
3142	700.000	0.040	699.999	0.177	3.239	1772054289.755
3143	700.000	0.042	700.001	0.187	3.090	1772054289.993
3144	700.000	0.016	699.997	0.085	2.966	1772054290.271
3145	700.000	-0.006	699.996	0.209	3.104	1772054290.540
3146	700.000	0.003	700.003	0.146	3.004	1772054290.791
3147	700.000	0.006	700.000	0.171	2.904	1772054291.067
3148	700.000	0.006	699.999	0.107	3.384	1772054291.341
3149	700.000	-0.007	699.994	0.204	2.974	1772054291.596
3150	700.000	-0.039	700.002	0.220	3.117	1772054291.843
3151	700.000	-0.037	700.003	0.099	3.200	1772054292.097
3152	700.000	0.005	700.002	0.099	3.131	1772054292.335
3153	700.000	-0.012	699.999	0.108	2.739	1772054292.586
3154	700.000	-0.006	700.005	0.213	3.140	1772054292.842
3155	700.000	-0.005	700.001	0.214	3.140	1772054293.096
3156	700.000	0.001	700.001	0.182	3.204	1772054293.348
3157	700.000	0.017	700.000	0.166	2.847	1772054293.653
3158	700.000	0.039	699.999	0.226	2.902	1772054293.891
3159	700.000	0.002	700.003	0.178	3.092	1772054294.157
3160	700.000	0.017	699.996	0.147	2.908	1772054294.403
3161	700.000	0.047	700.001	0.171	3.119	1772054294.649
3162	700.000	-0.017	700.001	0.191	3.176	1772054294.902
3163	700.000	-0.035	700.001	0.193	3.068	1772054295.172
3164	700.000	0.034	699.998	0.171	3.299	1772054295.451
3165	700.000	-0.030	700.000	0.179	3.278	1772054295.735
3166	700.000	0.007	700.001	0.146	3.175	1772054296.032
3167	700.000	-0.015	699.999	0.116	3.266	1772054296.272
3168	700.000	0.023	699.999	0.118	3.003	1772054296.502
3169	700.000	0.025	700.003	0.120	2.986	1772054296.790
3170	700.000	-0.028	699.999	0.196	2.973	1772054297.088
3171	700.000	0.034	700.001	0.184	2.838	1772054297.356
3172	700.000	0.011	700.004	0.188	3.127	1772054297.649
3173	700.000	-0.005	699.999	0.236	3.311	1772054297.881
3174	700.000	-0.015	700.000	0.142	3.143	1772054298.152
3175	700.000	0.033	699.999	0.152	3.121	1772054298.399
3176	700.000	0.020	699.998	0.200	3.234	1772054298.645
3177	700.000	0.026	699.999	0.136	3.226	1772054298.900
3178	700.000	0.036	700.002	0.137	2.482	1772054299.133
3179	700.000	-0.068	699.999	0.150	2.998	1772054299.409
3180	700.000	-0.007	700.001	0.173	3.251	1772054299.651
3181	700.000	0.014	699.999	0.101	3.140	1772054299.970
3182	700.000	0.005	700.001	0.154	2.923	1772054300.276
3183	700.000	-0.015	700.000	0.218	2.938	1772054300.513
3184	700.000	-0.015	699.999	0.158	2.625	1772054300.788
3185	700.000	-0.018	699.997	0.165	2.997	1772054301.066
3186	700.000	-0.010	700.004	0.192	3.088	1772054301.339
3187	700.000	-0.012	699.998	0.189	2.885	1772054301.562
3188	700.000	0.003	699.999	0.206	3.170	1772054301.825
3189	700.000	0.006	700.000	0.143	3.060	1772054302.079
3190	700.000	0.017	699.998	0.277	3.193	1772054302.338
3191	700.000	0.006	700.003	0.218	3.052	1772054302.577
3192	700.000	-0.005	700.003	0.133	3.158	1772054302.823
3193	700.000	0.007	700.001	0.083	3.198	1772054303.068
3194	700.000	0.033	700.000	0.117	3.181	1772054303.338
3195	700.000	0.009	700.003	0.189	3.086	1772054303.586
3196	700.000	-0.002	699.999	0.189	2.818	1772054303.817
3197	700.000	0.040	700.003	0.198	2.924	1772054304.070
3198	700.000	-0.027	699.998	0.156	2.853	1772054304.356
3199	700.000	-0.012	700.001	0.203	3.348	1772054304.592
3200	700.000	-0.004	699.999	0.160	2.399	1772054304.858
3201	700.000	-0.008	700.001	0.124	2.395	1772054305.124
3202	700.000	0.020	699.997	0.130	3.037	1772054305.404
3203	700.000	-0.014	699.999	0.113	2.830	1772054305.676
3204	700.000	-0.017	699.999	0.177	3.206	1772054305.892
3205	700.000	0.015	699.999	0.166	3.128	1772054306.178
3206	700.000	0.000	700.000	0.153	3.033	1772054306.416
3207	700.000	0.007	700.000	0.089	2.646	1772054306.646
3208	700.000	-0.009	699.999	0.094	2.487	1772054306.912
3209	700.000	-0.015	699.999	0.147	2.841	1772054307.169
3210	700.000	-0.038	700.000	0.083	2.570	1772054307.422
3211	700.000	-0.029	700.000	0.156	2.941	1772054307.649
3212	700.000	0.020	699.997	0.090	2.763	1772054307.921
3213	700.000	0.007	700.002	0.153	2.917	1772054308.178
3214	700.000	0.021	700.000	0.155	2.946	1772054308.470
3215	700.000	-0.000	700.000	0.150	3.114	1772054308.716
3216	700.000	-0.045	700.001	0.144	3.053	1772054308.991
3217	700.000	0.025	699.999	0.233	3.059	1772054309.220
3218	700.000	0.052	700.000	0.114	3.147	1772054309.502
3219	700.000	0.008	699.998	0.175	2.880	1772054309.796
3220	700.000	-0.011	700.000	0.082	3.223	1772054310.041
3221	700.000	0.015	700.000	0.115	2.133	1772054310.267
3222	700.000	-0.017	700.000	0.134	2.171	1772054310.541
3223	700.000	0.010	700.002	0.143	3.036	1772054310.787
3224	700.000	-0.017	700.001	0.223	3.105	1772054311.037
3225	700.000	-0.028	700.001	0.109	1.818	1772054311.319
3226	700.000	-0.003	699.993	0.164	2.458	1772054311.569
3227	700.000	-0.017	699.999	0.089	2.721	1772054311.814
3228	700.000	0.065	700.003	0.110	3.384	1772054312.105
3229	700.000	0.019	700.003	0.140	2.513	1772054312.407
3230	700.000	-0.022	700.000	0.192	2.704	1772054312.674
3231	700.000	-0.006	700.002	0.108	2.851	1772054312.988
3232	700.000	0.006	699.996	0.175	3.240	1772054313.257
3233	700.000	-0.002	700.002	0.202	2.934	1772054313.547
3234	700.000	0.002	700.003	0.144	2.770	1772054313.787
3235	700.000	-0.015	699.998	0.173	2.665	1772054314.056
3236	700.000	0.014	700.000	0.138	3.107	1772054314.353
3237	700.000	-0.004	700.002	0.236	3.462	1772054314.590
3238	700.000	-0.010	699.999	0.165	3.168	1772054314.817
3239	700.000	0.032	699.997	0.194	3.059	1772054315.097
3240	700.000	0.021	700.003	0.221	3.086	1772054315.343
3241	700.000	0.016	700.000	0.198	2.700	1772054315.611
3242	700.000	-0.009	700.003	0.202	2.654	1772054315.833
3243	700.000	0.021	699.999	0.232	3.070	1772054316.124
3244	700.000	-0.013	699.997	0.187	3.233	1772054316.386
3245	700.000	-0.021	700.003	0.165	2.911	1772054316.691
3246	700.000	-0.037	699.998	0.182	2.997	1772054316.921
3247	700.000	-0.004	700.000	0.170	3.066	1772054317.190
3248	700.000	0.006	699.998	0.139	2.784	1772054317.417
3249	700.000	0.015	699.999	0.118	2.814	1772054317.710
3250	700.000	-0.023	699.999	0.176	2.805	1772054317.968
3251	700.000	-0.018	700.005	0.121	3.451	1772054318.253
3252	700.000	-0.028	700.002	0.185	2.749	1772054318.548
3253	700.000	-0.001	700.002	0.083	2.701	1772054318.798
3254	700.000	-0.017	699.997	0.225	2.811	1772054319.053
3255	700.000	-0.019	699.997	0.166	3.300	1772054319.305
3256	700.000	-0.011	700.001	0.144	2.896	1772054319.540
3257	700.000	-0.025	700.000	0.200	2.781	1772054319.793
3258	700.000	0.033	700.001	0.153	2.885	1772054320.054
3259	700.000	0.010	699.996	0.125	3.403	1772054320.294
3260	700.000	-0.002	699.997	0.120	2.851	1772054320.540
3261	700.000	0.006	699.998	0.115	2.770	1772054320.761
3262	700.000	-0.018	699.998	0.255	3.132	1772054321.044
3263	700.000	0.029	699.998	0.118	2.750	1772054321.274
3264	700.000	0.017	699.999	0.181	3.156	1772054321.538
3265	700.000	-0.010	700.000	0.219	3.434	1772054321.800
3266	700.000	-0.015	700.000	0.163	2.959	1772054322.105
3267	700.000	0.011	700.002	0.162	2.662	1772054322.344
3268	700.000	0.035	699.998	0.281	3.158	1772054322.605
3269	700.000	-0.001	699.997	0.216	3.180	1772054322.833
3270	700.000	0.021	699.996	0.193	3.081	1772054323.119
3271	700.000	0.006	700.001	0.213	3.209	1772054323.400
3272	700.000	0.012	700.001	0.125	2.739	1772054323.654
3273	700.000	-0.006	699.999	0.179	3.231	1772054323.929
3274	700.000	-0.023	700.001	0.189	3.240	1772054324.269
3275	700.000	0.013	700.001	0.167	3.058	1772054324.541
3276	700.000	-0.048	700.000	0.169	2.918	1772054324.782
3277	700.000	0.027	700.000	0.233	2.990	1772054325.036
3278	700.000	0.015	700.000	0.204	3.113	1772054325.275
3279	700.000	-0.025	700.002	0.212	2.719	1772054325.497
3280	700.000	0.016	700.001	0.201	3.146	1772054325.764
3281	700.000	-0.033	699.997	0.144	2.640	1772054326.007
3282	700.000	0.007	700.001	0.235	3.221	1772054326.290
3283	700.000	-0.018	699.996	0.192	2.765	1772054326.528
3284	700.000	0.007	700.000	0.214	2.727	1772054326.790
3285	700.000	0.039	699.999	0.133	2.316	1772054327.047
3286	700.000	0.015	699.999	0.156	2.967	1772054327.540
3287	700.000	0.023	699.998	0.178	2.887	1772054327.775
3288	700.000	-0.003	700.003	0.229	3.271	1772054328.036
3289	700.000	0.021	699.998	0.158	2.998	1772054328.271
3290	700.000	-0.032	700.001	0.109	3.021	1772054328.560
3291	700.000	-0.020	700.000	0.154	2.786	1772054328.812
3292	700.000	-0.009	699.998	0.181	3.086	1772054329.092
3293	700.000	0.026	700.002	0.224	3.062	1772054329.345
3294	700.000	-0.009	699.999	0.136	2.260	1772054329.609
3295	700.000	-0.009	700.000	0.133	3.168	1772054329.848
3296	700.000	0.007	700.000	0.130	2.964	1772054330.095
3297	700.000	0.029	699.999	0.167	3.518	1772054330.347
3298	700.000	-0.026	700.001	0.154	2.780	1772054330.592
3299	700.000	-0.011	699.996	0.122	3.029	1772054330.860
3300	700.000	-0.054	699.999	0.185	2.744	1772054331.098
3301	700.000	0.030	699.999	0.215	2.715	1772054331.379
3302	700.000	-0.001	700.002	0.160	2.728	1772054331.677
3303	700.000	-0.015	699.999	0.201	3.008	1772054331.917
3304	700.000	0.025	699.999	0.143	2.853	1772054332.142
3305	700.000	0.013	700.002	0.071	2.803	1772054332.403
3306	700.000	-0.016	700.002	0.144	2.621	1772054332.658
3307	700.000	0.006	700.000	0.118	2.850	1772054332.924
3308	700.000	0.007	700.000	0.157	2.299	1772054333.141
3309	700.000	0.042	700.001	0.120	2.808	1772054333.414
3310	700.000	-0.018	700.000	0.112	2.576	1772054333.652
3311	700.000	-0.007	700.000	0.145	2.840	1772054333.934
3312	700.000	-0.014	700.002	0.103	2.578	1772054334.179
3313	700.000	0.004	699.998	0.117	3.096	1772054334.500
3314	700.000	-0.017	699.998	0.089	2.938	1772054334.810
3315	700.000	0.046	699.999	0.103	3.124	1772054335.084
3316	700.000	-0.022	700.001	0.177	2.423	1772054335.371
3317	700.000	0.030	699.997	0.147	2.951	1772054335.683
3318	700.000	-0.000	699.999	0.166	2.887	1772054335.953
3319	700.000	0.029	700.002	0.210	2.792	1772054336.239
3320	700.000	0.031	699.998	0.128	2.560	1772054336.472
3321	700.000	-0.022	699.999	0.174	3.310	1772054336.720
3322	700.000	0.009	700.001	0.202	3.096	1772054336.975
3323	700.000	0.017	700.003	0.106	3.018	1772054337.234
3324	700.000	-0.012	700.001	0.221	3.420	1772054337.498
3325	700.000	0.014	700.000	0.173	3.086	1772054337.797
3326	700.000	-0.022	700.001	0.192	2.977	1772054338.031
3327	700.000	-0.020	699.998	0.131	3.028	1772054338.311
3328	700.000	-0.036	700.001	0.126	2.784	1772054338.574
3329	700.000	-0.006	699.999	0.141	3.166	1772054338.862
3330	700.000	-0.029	700.002	0.167	3.124	1772054339.090
3331	700.000	-0.027	699.999	0.156	2.749	1772054339.341
3332	700.000	0.004	700.001	0.200	2.866	1772054339.596
3333	700.000	0.018	700.000	0.209	3.127	1772054339.861
3334	700.000	-0.001	700.002	0.136	2.601	1772054340.095
3335	700.000	-0.012	700.002	0.132	3.146	1772054340.335
3336	700.000	-0.013	699.999	0.135	2.886	1772054340.587
3337	700.000	0.013	699.998	0.180	2.886	1772054340.830
3338	700.000	0.003	699.999	0.163	2.773	1772054341.099
3339	700.000	0.013	700.000	0.171	2.807	1772054341.363
3340	700.000	-0.002	699.998	0.203	2.991	1772054341.668
3341	700.000	-0.007	700.000	0.192	2.832	1772054341.975
3342	700.000	0.028	700.000	0.155	3.094	1772054342.196
3343	700.000	-0.036	700.000	0.201	2.984	1772054342.487
3344	700.000	-0.002	700.000	0.096	3.105	1772054342.746
3345	700.000	0.002	700.002	0.236	3.129	1772054342.988
3346	700.000	0.003	700.001	0.192	2.659	1772054343.224
3347	700.000	-0.008	699.999	0.260	3.278	1772054343.459
3348	700.000	-0.023	700.002	0.194	2.831	1772054343.734
3349	700.000	-0.013	699.995	0.078	2.751	1772054343.963
3350	700.000	-0.000	700.001	0.212	2.944	1772054344.239
3351	700.000	0.016	699.999	0.157	2.396	1772054344.480
3352	700.000	0.007	699.999	0.119	2.207	1772054344.725
3353	700.000	-0.015	700.001	0.157	2.749	1772054344.992
3354	700.000	-0.009	700.001	0.202	2.967	1772054345.229
3355	700.000	-0.026	699.998	0.227	3.287	1772054345.463
3356	700.000	0.011	700.002	0.132	3.102	1772054345.718
3357	700.000	-0.021	699.999	0.125	2.590	1772054345.964
3358	700.000	0.017	699.998	0.167	3.031	1772054346.233
3359	700.000	-0.010	700.003	0.132	2.616	1772054346.506
3360	700.000	0.024	699.999	0.170	2.787	1772054346.788
3361	700.000	0.005	699.999	0.156	3.139	1772054347.052
3362	700.000	-0.005	700.000	0.199	3.022	1772054347.315
3363	700.000	-0.004	699.998	0.128	3.219	1772054347.559
3364	700.000	-0.004	699.999	0.235	3.156	1772054347.789
3365	700.000	0.024	699.999	0.153	2.493	1772054348.063
3366	700.000	-0.011	700.005	0.114	2.630	1772054348.320
3367	700.000	0.008	700.001	0.222	3.102	1772054348.632
3368	700.000	-0.017	700.000	0.182	2.815	1772054348.935
3369	700.000	-0.020	700.000	0.285	2.970	1772054349.163
3370	700.000	-0.039	700.003	0.189	3.174	1772054349.438
3371	700.000	0.013	699.997	0.122	3.395	1772054349.691
3372	700.000	-0.005	699.999	0.136	3.054	1772054349.925
3373	700.000	-0.042	699.998	0.138	2.960	1772054350.201
3374	700.000	-0.019	700.000	0.186	2.762	1772054350.430
3375	700.000	-0.008	699.997	0.166	3.253	1772054350.705
3376	700.000	0.015	700.000	0.190	2.951	1772054350.946
3377	700.000	0.034	700.003	0.163	3.406	1772054351.228
3378	700.000	-0.050	700.001	0.125	2.920	1772054351.456
3379	700.000	-0.022	700.000	0.109	2.897	1772054351.717
3380	700.000	0.033	700.000	0.191	3.021	1772054351.966
3381	700.000	0.012	700.000	0.159	3.083	1772054352.234
3382	700.000	-0.015	700.001	0.104	2.814	1772054352.483
3383	700.000	0.015	699.997	0.160	2.586	1772054352.712
3384	700.000	0.009	700.002	0.174	3.006	1772054352.967
3385	700.000	0.055	700.000	0.135	2.852	1772054353.222
3386	700.000	-0.017	699.999	0.147	2.834	1772054353.483
3387	700.000	-0.002	700.000	0.115	2.767	1772054353.736
3388	700.000	0.001	699.999	0.246	3.310	1772054353.982
3389	700.000	0.019	700.005	0.168	3.159	1772054354.232
3390	700.000	0.012	699.998	0.195	2.780	1772054354.458
3391	700.000	-0.001	700.003	0.118	2.259	1772054354.713
3392	700.000	-0.017	700.001	0.147	2.816	1772054354.965
3393	700.000	-0.024	700.001	0.189	2.609	1772054355.219
3394	700.000	0.026	700.003	0.117	3.256	1772054355.479
3395	700.000	-0.006	699.998	0.177	3.167	1772054355.715
3396	700.000	0.030	700.000	0.253	3.289	1772054355.970
3397	700.000	-0.011	700.001	0.204	2.825	1772054356.234
3398	700.000	-0.009	700.000	0.136	3.193	1772054356.482
3399	700.000	0.023	699.998	0.208	2.632	1772054356.715
3400	700.000	-0.014	700.001	0.215	2.849	1772054356.984
3401	700.000	-0.023	699.997	0.171	3.181	1772054357.215
3402	700.000	0.017	700.003	0.132	2.470	1772054357.485
3403	700.000	0.006	700.001	0.198	2.797	1772054357.735
3404	700.000	0.011	700.000	0.221	3.201	1772054358.046
3405	700.000	-0.039	700.002	0.183	2.990	1772054358.272
