Point No.	Frequency Set (GHz)	THz Photocurrent (nA)	Frequency Act (GHz)	Amplitude (via StrMod)	Phase (via StrMod)	Timestamp (s)
1	900.000	0.004	900.002	0.140	0.412	1772059555.390
2	900.000	-0.012	900.000	0.074	1.035	1772059555.657
3	900.000	-0.005	899.997	0.118	0.419	1772059555.966
4	900.000	-0.009	899.997	0.146	0.664	1772059556.258
5	900.000	0.001	900.000	0.115	0.649	1772059556.527
6	900.000	-0.010	899.999	0.139	0.164	1772059556.823
7	900.000	0.011	899.999	0.147	0.544	1772059557.168
8	900.000	0.024	900.000	0.157	0.752	1772059557.447
9	900.000	-0.008	900.000	0.133	0.675	1772059557.699
10	900.000	-0.032	899.996	0.083	0.775	1772059557.950
11	900.000	-0.000	900.001	0.056	0.590	1772059558.263
12	900.000	0.020	900.001	0.138	0.795	1772059558.535
13	900.000	0.005	899.998	0.066	0.324	1772059558.865
14	900.000	0.008	900.001	0.061	0.875	1772059559.146
15	900.000	0.029	900.000	0.136	1.186	1772059559.418
16	900.000	0.014	899.999	0.113	1.259	1772059559.693
17	900.000	0.000	899.998	0.118	0.531	1772059559.969
18	900.000	-0.008	899.996	0.142	0.955	1772059560.223
19	900.000	-0.014	899.999	0.089	0.619	1772059560.543
20	900.000	0.025	900.001	0.145	0.430	1772059560.843
21	900.000	-0.020	899.999	0.135	1.089	1772059561.169
22	900.000	0.034	900.003	0.121	0.908	1772059561.446
23	900.000	-0.001	899.997	0.149	0.696	1772059561.717
24	900.000	0.002	899.999	0.128	0.965	1772059562.026
25	900.000	-0.000	899.998	0.122	0.755	1772059562.305
26	900.000	0.029	899.997	0.112	0.978	1772059562.597
27	900.000	0.001	900.000	0.129	0.618	1772059562.912
28	900.000	-0.001	900.001	0.087	0.820	1772059563.176
29	900.000	-0.012	900.001	0.145	0.957	1772059563.442
30	900.000	-0.010	899.998	0.083	0.819	1772059563.749
31	900.000	0.032	900.002	0.097	0.950	1772059564.063
32	900.000	0.012	899.996	0.085	0.639	1772059564.392
33	900.000	-0.013	899.998	0.154	0.335	1772059564.681
34	900.000	-0.017	900.003	0.099	0.471	1772059565.002
35	900.000	-0.010	900.002	0.060	1.144	1772059565.298
36	900.000	-0.017	899.999	0.125	0.681	1772059565.544
37	900.000	0.007	900.003	0.087	0.779	1772059565.785
38	900.000	0.005	900.001	0.149	1.000	1772059566.056
39	900.000	0.011	899.998	0.137	0.491	1772059566.377
40	900.000	0.002	900.000	0.090	6.258	1772059566.660
41	900.000	-0.011	900.002	0.047	0.540	1772059566.925
42	900.000	-0.005	900.001	0.100	0.316	1772059567.149
43	900.000	0.017	899.997	0.137	0.315	1772059567.442
44	900.000	-0.000	899.999	0.093	0.202	1772059567.724
45	900.000	0.015	899.999	0.147	0.219	1772059568.005
46	900.000	0.015	900.001	0.094	0.807	1772059568.284
47	900.000	-0.012	899.999	0.103	0.519	1772059568.563
48	900.000	-0.019	899.997	0.065	0.037	1772059568.860
49	900.000	0.008	900.000	0.125	0.388	1772059569.190
50	900.000	0.008	899.996	0.120	0.286	1772059569.477
51	900.000	-0.009	899.997	0.120	0.424	1772059569.782
52	900.000	-0.016	900.001	0.121	0.319	1772059570.077
53	900.000	-0.010	899.998	0.100	0.223	1772059570.374
54	900.000	0.007	899.997	0.092	0.615	1772059570.681
55	900.000	0.045	900.002	0.117	0.917	1772059570.998
56	900.000	0.006	899.999	0.100	0.609	1772059571.307
57	900.000	-0.005	899.999	0.110	0.747	1772059571.614
58	900.000	0.024	899.999	0.162	0.673	1772059571.919
59	900.000	0.028	900.000	0.164	0.354	1772059572.230
60	900.000	0.005	900.003	0.134	0.636	1772059572.530
61	900.000	0.024	899.998	0.101	0.479	1772059572.776
62	900.000	0.016	899.997	0.179	0.414	1772059573.034
63	900.000	-0.007	899.997	0.112	0.679	1772059573.299
64	900.000	0.019	899.996	0.205	0.437	1772059573.579
65	900.000	0.006	900.003	0.069	0.615	1772059573.875
66	900.000	0.028	899.999	0.100	0.335	1772059574.174
67	900.000	0.003	899.997	0.117	0.556	1772059574.505
68	900.000	-0.005	899.998	0.100	0.550	1772059574.798
69	900.000	-0.026	900.002	0.078	0.401	1772059575.061
70	900.000	-0.016	900.000	0.160	0.350	1772059575.327
71	900.000	0.007	900.000	0.117	1.395	1772059575.619
72	900.000	0.016	899.997	0.091	0.356	1772059575.891
73	900.000	-0.004	900.001	0.117	0.341	1772059576.223
74	900.000	0.006	900.002	0.121	0.527	1772059576.525
75	900.000	0.035	900.002	0.057	6.172	1772059576.815
76	900.000	-0.006	899.999	0.017	0.635	1772059577.134
77	900.000	-0.011	900.000	0.061	1.345	1772059577.438
78	900.000	-0.002	900.002	0.016	6.138	1772059577.757
79	900.000	0.010	900.000	0.056	0.421	1772059578.046
80	900.000	0.006	900.000	0.061	6.098	1772059578.354
81	900.000	0.024	900.001	0.046	1.600	1772059578.618
82	900.000	-0.020	900.000	0.034	1.931	1772059578.907
83	900.000	0.033	899.999	0.037	1.367	1772059579.201
84	900.000	-0.054	899.999	0.030	1.018	1772059579.540
85	900.000	-0.018	900.005	0.046	1.229	1772059579.836
86	900.000	-0.009	900.002	0.035	6.206	1772059580.154
87	900.000	0.046	900.002	0.055	0.864	1772059580.470
88	900.000	0.006	899.999	0.044	5.955	1772059580.798
89	900.000	0.027	900.000	0.051	0.943	1772059581.098
90	900.000	0.012	900.000	0.040	0.540	1772059581.412
91	900.000	0.019	900.000	0.025	2.534	1772059581.706
92	900.000	-0.019	899.996	0.018	0.412	1772059582.024
93	900.000	-0.030	900.003	0.009	6.105	1772059582.344
94	900.000	-0.028	900.004	0.071	0.716	1772059582.652
95	900.000	0.008	900.000	0.025	1.657	1772059582.970
96	900.000	-0.004	900.002	0.030	0.612	1772059583.268
97	900.000	-0.017	899.999	0.014	4.770	1772059583.578
98	900.000	0.018	899.999	0.029	6.257	1772059583.852
99	900.000	0.004	900.001	0.015	0.740	1772059584.137
100	900.000	-0.025	899.999	0.012	2.187	1772059584.402
101	900.000	0.021	899.999	0.050	0.891	1772059584.716
102	900.000	-0.005	899.999	0.063	5.292	1772059585.017
103	900.000	0.006	900.002	0.039	0.048	1772059585.327
104	900.000	0.009	900.002	0.044	0.324	1772059585.657
105	900.000	-0.026	900.000	0.042	6.171	1772059585.985
106	900.000	0.007	900.002	0.015	4.057	1772059586.280
107	900.000	0.013	899.998	0.054	0.807	1772059586.594
108	900.000	0.016	900.001	0.059	5.762	1772059586.892
109	900.000	0.026	900.004	0.099	5.979	1772059587.132
110	900.000	0.020	899.999	0.101	5.444	1772059587.445
111	900.000	0.042	900.003	0.047	4.394	1772059587.710
112	900.000	-0.021	899.999	0.050	5.699	1772059588.037
113	900.000	0.001	900.003	0.095	5.400	1772059588.343
114	900.000	0.001	899.997	0.081	5.241	1772059588.650
115	900.000	-0.012	900.001	0.043	5.581	1772059588.960
116	900.000	-0.006	899.999	0.081	0.222	1772059589.271
117	900.000	-0.048	899.995	0.015	2.237	1772059589.571
118	900.000	0.015	899.998	0.126	1.616	1772059589.897
119	900.000	0.021	900.001	0.079	5.399	1772059590.214
120	900.000	-0.043	899.999	0.022	3.563	1772059590.444
121	900.000	0.011	900.000	0.124	1.484	1772059590.705
122	900.000	-0.005	900.000	0.054	5.606	1772059590.971
123	900.000	0.002	900.002	0.079	6.242	1772059591.287
124	900.000	0.011	900.003	0.117	0.800	1772059591.614
125	900.000	-0.013	900.004	0.070	4.692	1772059591.930
126	900.000	0.007	900.003	0.133	1.211	1772059592.216
127	900.000	0.000	900.001	0.021	5.880	1772059592.539
128	900.000	-0.010	900.000	0.044	4.663	1772059592.849
129	900.000	0.007	899.998	0.125	1.031	1772059593.169
130	900.000	-0.005	900.003	0.080	5.832	1772059593.462
131	900.000	0.012	900.001	0.035	6.009	1772059593.743
132	900.000	0.003	899.998	0.107	1.096	1772059594.043
133	900.000	0.012	900.001	0.088	4.929	1772059594.344
134	900.000	-0.027	900.002	0.054	1.556	1772059594.632
135	900.000	-0.009	900.001	0.033	6.183	1772059594.914
136	900.000	0.007	900.000	0.108	4.225	1772059595.236
137	900.000	0.029	900.000	0.087	1.000	1772059595.556
138	900.000	0.001	899.997	0.090	6.236	1772059595.842
139	900.000	0.042	899.998	0.039	4.344	1772059596.171
140	900.000	0.012	899.997	0.168	0.848	1772059596.471
141	900.000	0.004	900.000	0.105	5.778	1772059596.801
142	900.000	-0.028	900.001	0.057	1.933	1772059597.081
143	900.000	-0.008	899.998	0.129	0.772	1772059597.362
144	900.000	0.017	900.001	0.060	4.723	1772059597.664
145	900.000	0.001	900.003	0.067	1.384	1772059597.984
146	900.000	0.001	900.001	0.059	0.965	1772059598.279
147	900.000	-0.015	899.998	0.042	4.671	1772059598.596
148	900.000	0.004	899.996	0.051	1.220	1772059598.933
149	900.000	-0.002	899.999	0.089	5.765	1772059599.215
150	900.000	0.012	900.002	0.022	3.460	1772059599.517
151	900.000	0.008	900.002	0.076	0.985	1772059599.849
152	900.000	0.003	900.001	0.106	4.790	1772059600.116
153	900.000	-0.015	899.999	0.084	1.129	1772059600.433
154	900.000	-0.015	900.000	0.069	0.636	1772059600.731
155	900.000	-0.006	899.999	0.095	4.639	1772059601.056
156	900.000	0.012	900.002	0.115	1.081	1772059601.368
157	900.000	0.006	899.999	0.073	5.021	1772059601.668
158	900.000	0.031	900.002	0.050	3.724	1772059601.972
159	900.000	0.009	900.000	0.144	0.914	1772059602.296
160	900.000	0.013	899.999	0.101	5.178	1772059602.637
161	900.000	-0.010	899.999	0.079	1.176	1772059602.936
162	900.000	0.000	900.000	0.077	0.027	1772059603.239
163	900.000	0.005	900.001	0.076	4.580	1772059603.564
164	900.000	-0.038	900.000	0.079	1.595	1772059603.850
165	900.000	0.027	899.998	0.045	4.768	1772059604.120
166	900.000	-0.001	899.998	0.013	1.225	1772059604.420
167	900.000	-0.022	900.001	0.089	1.260	1772059604.730
168	900.000	0.004	899.998	0.098	4.464	1772059605.005
169	900.000	0.028	900.003	0.011	3.844	1772059605.287
170	900.000	-0.042	900.002	0.127	0.935	1772059605.565
171	900.000	0.007	900.001	0.047	5.932	1772059605.880
172	900.000	0.016	900.000	0.032	2.230	1772059606.176
173	900.000	-0.012	899.998	0.059	0.414	1772059606.491
174	900.000	0.002	900.002	0.116	5.423	1772059606.800
175	900.000	0.023	899.995	0.146	1.157	1772059607.122
176	900.000	-0.005	900.004	0.081	5.555	1772059607.428
177	900.000	0.036	899.997	0.047	0.057	1772059607.716
178	900.000	-0.007	899.998	0.143	0.889	1772059607.998
179	900.000	0.012	899.998	0.055	0.238	1772059608.309
180	900.000	-0.006	899.999	0.028	6.187	1772059608.592
181	900.000	-0.029	900.001	0.085	1.208	1772059608.875
182	900.000	0.031	900.001	0.117	5.241	1772059609.183
183	900.000	-0.016	899.999	0.014	3.686	1772059609.471
184	900.000	-0.007	900.001	0.127	0.920	1772059609.773
185	900.000	0.011	900.001	0.041	4.605	1772059610.108
186	900.000	0.018	900.000	0.055	0.668	1772059610.397
187	900.000	-0.021	900.002	0.086	0.600	1772059610.711
188	900.000	0.012	899.997	0.055	4.573	1772059611.013
189	900.000	-0.037	900.000	0.145	0.911	1772059611.280
190	900.000	0.009	899.999	0.099	0.206	1772059611.554
191	900.000	-0.008	900.001	0.127	5.209	1772059611.852
192	900.000	0.006	899.998	0.109	1.027	1772059612.160
193	900.000	0.001	900.002	0.035	5.096	1772059612.451
194	900.000	0.009	900.002	0.001	3.991	1772059612.770
195	900.000	-0.026	899.999	0.074	0.477	1772059613.083
196	900.000	-0.008	899.994	0.103	5.196	1772059613.352
197	900.000	0.024	900.003	0.075	1.154	1772059613.691
198	900.000	-0.011	899.999	0.021	3.024	1772059613.985
199	900.000	-0.002	900.000	0.099	4.631	1772059614.255
200	900.000	-0.018	900.005	0.056	0.931	1772059614.537
201	900.000	0.019	899.999	0.014	5.077	1772059614.858
202	900.000	-0.014	899.998	0.135	4.860	1772059615.131
203	900.000	-0.009	900.002	0.103	1.445	1772059615.422
204	900.000	-0.007	900.002	0.082	5.840	1772059615.730
205	900.000	0.018	899.999	0.143	4.908	1772059616.003
206	900.000	0.005	900.003	0.127	0.928	1772059616.289
207	900.000	0.033	900.002	0.075	5.836	1772059616.608
208	900.000	0.004	899.998	0.069	3.775	1772059616.900
209	900.000	-0.008	900.006	0.093	1.041	1772059617.147
210	900.000	-0.013	900.001	0.108	4.106	1772059617.428
211	900.000	-0.015	900.001	0.040	4.278	1772059617.679
212	900.000	0.004	900.001	0.082	0.731	1772059617.995
213	900.000	0.003	900.000	0.086	4.655	1772059618.316
214	900.000	0.025	900.001	0.046	0.786	1772059618.639
215	900.000	0.008	899.996	0.117	0.586	1772059618.928
216	900.000	0.016	900.000	0.115	4.586	1772059619.236
217	900.000	0.018	900.002	0.098	1.454	1772059619.550
218	900.000	0.005	900.001	0.060	4.845	1772059619.881
219	900.000	-0.005	900.001	0.102	3.916	1772059620.178
220	900.000	-0.001	899.999	0.152	0.804	1772059620.473
221	900.000	-0.005	899.999	0.090	5.065	1772059620.746
222	900.000	-0.007	900.000	0.044	0.975	1772059621.051
223	900.000	0.006	899.998	0.080	1.239	1772059621.358
224	900.000	0.012	900.000	0.065	5.097	1772059621.614
225	900.000	-0.013	900.003	0.036	1.648	1772059621.886
226	900.000	-0.006	900.000	0.107	0.741	1772059622.162
227	900.000	-0.002	899.998	0.113	5.338	1772059622.484
228	900.000	0.019	899.999	0.023	1.714	1772059622.778
229	900.000	0.012	899.997	0.034	5.893	1772059623.057
230	900.000	-0.034	899.998	0.091	4.159	1772059623.356
231	900.000	0.018	900.000	0.067	1.175	1772059623.601
232	900.000	0.003	900.001	0.066	1.346	1772059623.888
233	900.000	0.010	900.000	0.061	4.216	1772059624.187
234	900.000	0.032	900.002	0.095	1.093	1772059624.469
235	900.000	0.014	899.999	0.096	5.911	1772059624.745
236	900.000	-0.003	900.001	0.054	4.454	1772059625.066
237	900.000	-0.007	899.997	0.103	1.449	1772059625.346
238	900.000	-0.020	900.000	0.046	3.985	1772059625.613
239	900.000	-0.032	900.001	0.063	3.505	1772059625.921
240	900.000	-0.031	900.002	0.151	1.314	1772059626.229
241	900.000	0.032	900.000	0.032	5.201	1772059626.495
242	900.000	0.025	900.000	0.003	3.810	1772059626.724
243	900.000	-0.019	900.001	0.083	0.588	1772059626.995
244	900.000	-0.016	899.999	0.048	5.665	1772059627.314
245	900.000	0.005	899.999	0.021	6.135	1772059627.628
246	900.000	0.036	900.004	0.125	0.851	1772059627.923
247	900.000	-0.015	900.001	0.114	5.212	1772059628.194
248	900.000	0.016	899.999	0.068	1.051	1772059628.477
249	900.000	0.006	900.001	0.122	0.506	1772059628.749
250	900.000	0.024	899.998	0.039	4.655	1772059629.032
251	900.000	-0.016	900.000	0.067	1.751	1772059629.296
252	900.000	0.001	900.000	0.131	0.856	1772059629.615
253	900.000	0.005	899.999	0.101	5.433	1772059629.873
254	900.000	0.021	900.001	0.112	0.809	1772059630.203
255	900.000	0.007	900.001	0.052	6.211	1772059630.531
256	900.000	0.003	900.000	0.081	4.965	1772059630.826
257	900.000	0.000	900.000	0.144	1.124	1772059631.132
258	900.000	0.002	899.996	0.068	5.862	1772059631.440
259	900.000	-0.029	900.002	0.025	1.459	1772059631.759
260	900.000	0.009	900.001	0.144	0.984	1772059632.074
261	900.000	0.005	900.000	0.130	4.805	1772059632.358
262	900.000	-0.011	899.999	0.044	1.512	1772059632.683
263	900.000	-0.000	900.001	0.097	0.359	1772059632.950
264	900.000	0.011	899.998	0.110	5.087	1772059633.270
265	900.000	-0.040	900.004	0.078	1.073	1772059633.553
266	900.000	0.014	899.998	0.026	4.711	1772059633.870
267	900.000	-0.004	900.003	0.016	0.053	1772059634.151
268	900.000	0.057	900.003	0.100	1.013	1772059634.427
269	900.000	-0.010	900.002	0.069	0.611	1772059634.704
270	900.000	0.012	900.003	0.081	4.182	1772059635.011
271	900.000	0.016	900.001	0.147	0.705	1772059635.294
272	900.000	-0.020	900.001	0.076	5.687	1772059635.565
273	900.000	0.021	900.000	0.059	4.510	1772059635.850
274	900.000	-0.009	899.999	0.056	1.434	1772059636.129
275	900.000	-0.007	899.999	0.067	5.908	1772059636.436
276	900.000	-0.013	900.001	0.057	5.971	1772059636.679
277	900.000	-0.021	899.998	0.163	1.291	1772059636.948
278	900.000	-0.014	899.999	0.021	5.090	1772059637.278
279	900.000	0.003	899.999	0.054	1.309	1772059637.571
280	900.000	-0.013	899.999	0.132	0.771	1772059637.887
281	900.000	-0.010	900.001	0.117	4.978	1772059638.218
282	900.000	0.020	899.999	0.163	1.123	1772059638.541
283	900.000	-0.016	899.999	0.108	6.083	1772059638.840
284	900.000	-0.021	900.000	0.106	4.662	1772059639.142
285	900.000	-0.024	899.999	0.198	0.559	1772059639.457
286	900.000	0.018	899.997	0.034	4.912	1772059639.689
287	900.000	-0.026	899.998	0.087	3.691	1772059639.957
288	900.000	-0.005	900.004	0.109	1.166	1772059640.272
289	900.000	0.024	900.005	0.135	5.368	1772059640.529
290	900.000	-0.013	899.998	0.033	4.655	1772059640.853
291	900.000	-0.018	900.000	0.100	1.009	1772059641.149
292	900.000	0.003	900.004	0.066	4.127	1772059641.458
293	900.000	0.023	900.000	0.065	1.047	1772059641.740
294	900.000	-0.012	899.999	0.123	0.701	1772059642.034
295	900.000	-0.002	899.999	0.095	4.011	1772059642.360
296	900.000	-0.030	899.997	0.070	0.713	1772059642.640
297	900.000	-0.020	899.996	0.102	0.186	1772059642.965
298	900.000	-0.011	900.000	0.063	4.637	1772059643.258
299	900.000	-0.034	900.002	0.077	1.183	1772059643.512
300	900.000	-0.018	899.999	0.088	5.862	1772059643.835
301	900.000	0.013	899.996	0.027	5.041	1772059644.132
302	900.000	0.002	900.001	0.117	0.918	1772059644.391
303	900.000	0.025	899.997	0.054	5.329	1772059644.656
304	900.000	0.009	899.997	0.049	4.597	1772059644.930
305	900.000	0.001	900.000	0.098	1.109	1772059645.209
306	900.000	-0.039	899.999	0.053	6.010	1772059645.504
307	900.000	-0.005	900.000	0.040	4.273	1772059645.808
308	900.000	-0.039	900.000	0.102	1.120	1772059646.093
309	900.000	-0.005	900.001	0.037	0.974	1772059646.363
310	900.000	0.018	900.000	0.016	3.862	1772059646.660
311	900.000	-0.021	899.998	0.136	0.907	1772059646.977
312	900.000	-0.012	899.999	0.063	4.768	1772059647.294
313	900.000	-0.017	899.996	0.063	0.548	1772059647.595
314	900.000	-0.020	900.000	0.122	0.106	1772059647.919
315	900.000	-0.002	899.998	0.058	4.084	1772059648.197
316	900.000	0.028	900.000	0.116	1.393	1772059648.470
317	900.000	-0.024	899.998	0.117	0.128	1772059648.788
318	900.000	-0.004	900.000	0.067	4.532	1772059649.034
319	900.000	-0.004	900.001	0.130	1.449	1772059649.308
320	900.000	-0.040	900.001	0.061	0.022	1772059649.586
321	900.000	0.007	900.002	0.089	3.843	1772059649.859
322	900.000	-0.002	899.999	0.108	1.027	1772059650.177
323	900.000	-0.033	899.999	0.044	5.971	1772059650.457
324	900.000	0.048	900.000	0.063	5.763	1772059650.736
325	900.000	0.016	899.999	0.086	0.887	1772059651.047
326	900.000	-0.016	899.999	0.076	5.266	1772059651.358
327	900.000	-0.018	900.003	0.048	0.096	1772059651.668
328	900.000	-0.024	900.000	0.058	0.601	1772059651.978
329	900.000	-0.005	899.996	0.113	4.275	1772059652.311
330	900.000	-0.006	900.000	0.106	1.514	1772059652.611
331	900.000	0.012	899.994	0.070	5.383	1772059652.906
332	900.000	-0.010	900.003	0.102	5.839	1772059653.227
333	900.000	-0.019	900.000	0.127	1.250	1772059653.529
334	900.000	0.011	900.001	0.048	5.870	1772059653.844
335	900.000	0.008	900.000	0.046	2.495	1772059654.165
336	900.000	-0.005	900.004	0.091	0.456	1772059654.445
337	900.000	-0.006	900.000	0.073	5.322	1772059654.757
338	900.000	0.009	899.999	0.060	1.157	1772059655.046
339	900.000	0.016	900.002	0.090	0.595	1772059655.306
340	900.000	0.010	900.001	0.055	5.026	1772059655.628
341	900.000	0.001	900.001	0.099	1.101	1772059655.934
342	900.000	0.021	899.999	0.054	5.670	1772059656.241
343	900.000	0.002	900.004	0.054	4.686	1772059656.550
344	900.000	-0.018	899.998	0.165	0.812	1772059656.864
345	900.000	-0.012	900.000	0.068	5.014	1772059657.205
346	900.000	0.011	900.000	0.083	1.124	1772059657.482
347	900.000	-0.026	899.998	0.103	0.861	1772059657.799
348	900.000	0.000	900.000	0.091	4.984	1772059658.121
349	900.000	-0.010	899.997	0.090	0.993	1772059658.429
350	900.000	-0.015	900.001	0.008	3.634	1772059658.749
351	900.000	-0.011	900.002	0.040	4.992	1772059659.074
352	900.000	0.010	900.002	0.059	1.181	1772059659.348
353	900.000	0.031	900.003	0.049	4.451	1772059659.613
354	900.000	0.019	900.000	0.049	5.819	1772059659.934
355	900.000	-0.011	900.000	0.064	0.918	1772059660.235
356	900.000	0.002	900.002	0.058	4.918	1772059660.563
357	900.000	0.014	900.002	0.110	0.806	1772059660.873
358	900.000	0.008	900.000	0.125	0.528	1772059661.171
359	900.000	-0.009	900.001	0.137	4.284	1772059661.438
360	900.000	0.013	900.001	0.061	1.638	1772059661.761
361	900.000	-0.023	899.999	0.036	6.070	1772059662.065
362	900.000	-0.016	900.000	0.039	4.229	1772059662.353
363	900.000	0.001	900.001	0.105	0.780	1772059662.673
364	900.000	-0.003	900.000	0.061	4.730	1772059662.985
365	900.000	-0.001	900.002	0.020	0.861	1772059663.291
366	900.000	-0.007	900.000	0.166	0.912	1772059663.544
367	900.000	0.004	899.998	0.135	4.510	1772059663.807
368	900.000	-0.021	900.003	0.025	0.090	1772059664.133
369	900.000	0.018	899.999	0.107	0.573	1772059664.412
370	900.000	-0.004	899.996	0.054	5.274	1772059664.692
371	900.000	-0.001	900.001	0.043	1.643	1772059665.013
372	900.000	-0.015	900.000	0.101	6.161	1772059665.292
373	900.000	-0.009	899.998	0.090	5.250	1772059665.617
374	900.000	-0.015	899.997	0.094	1.285	1772059665.914
375	900.000	0.011	900.001	0.075	5.798	1772059666.241
376	900.000	0.016	900.003	0.019	1.144	1772059666.522
377	900.000	-0.038	900.001	0.080	1.567	1772059666.843
378	900.000	-0.010	900.002	0.039	6.044	1772059667.098
379	900.000	0.007	900.003	0.007	4.828	1772059667.402
380	900.000	0.023	900.000	0.110	0.818	1772059667.670
381	900.000	0.003	900.000	0.053	5.001	1772059667.975
382	900.000	0.013	900.000	0.039	1.283	1772059668.305
383	900.000	0.036	900.002	0.031	5.483	1772059668.603
384	900.000	0.036	900.000	0.056	5.135	1772059668.915
385	900.000	-0.007	900.000	0.093	0.982	1772059669.220
386	900.000	0.002	900.002	0.043	6.272	1772059669.536
387	900.000	0.040	900.001	0.018	3.943	1772059669.845
388	900.000	-0.035	900.003	0.149	0.874	1772059670.162
389	900.000	0.004	899.997	0.029	4.519	1772059670.442
390	900.000	0.014	899.999	0.056	3.428	1772059670.762
391	900.000	-0.035	899.998	0.143	0.553	1772059671.047
392	900.000	0.017	900.001	0.055	3.935	1772059671.306
393	900.000	-0.031	900.001	0.055	0.877	1772059671.630
394	900.000	0.004	899.998	0.085	0.805	1772059671.915
395	900.000	-0.001	900.000	0.091	4.683	1772059672.200
396	900.000	-0.007	899.999	0.073	0.998	1772059672.480
397	900.000	0.000	899.999	0.069	0.642	1772059672.803
398	900.000	0.017	899.999	0.060	4.553	1772059673.120
399	900.000	-0.036	899.995	0.103	1.063	1772059673.447
400	900.000	-0.012	899.996	0.049	6.203	1772059673.742
401	900.000	-0.005	899.998	0.015	3.514	1772059674.021
402	900.000	0.027	900.000	0.177	1.212	1772059674.297
403	900.000	-0.015	899.999	0.086	5.566	1772059674.552
404	900.000	0.021	899.999	0.051	5.011	1772059674.865
405	900.000	0.016	900.001	0.113	0.516	1772059675.184
406	900.000	0.008	899.999	0.089	5.488	1772059675.492
407	900.000	-0.014	900.002	0.036	1.767	1772059675.780
408	900.000	0.004	899.994	0.076	0.329	1772059676.065
409	900.000	0.012	900.000	0.052	5.145	1772059676.392
410	900.000	0.000	900.000	0.056	1.443	1772059676.668
411	900.000	0.009	899.998	0.109	0.337	1772059676.925
412	900.000	0.027	900.001	0.113	5.083	1772059677.157
413	900.000	-0.003	899.999	0.087	0.905	1772059677.503
414	900.000	-0.022	899.999	0.094	5.608	1772059677.817
415	900.000	-0.017	899.999	0.083	4.241	1772059678.119
416	900.000	0.024	900.003	0.068	0.765	1772059678.441
417	900.000	-0.014	899.998	0.041	5.557	1772059678.730
418	900.000	-0.010	899.998	0.044	3.500	1772059679.040
419	900.000	0.046	899.999	0.177	1.177	1772059679.274
420	900.000	-0.005	900.003	0.084	5.309	1772059679.562
421	900.000	0.011	900.002	0.054	3.980	1772059679.854
422	900.000	-0.017	900.001	0.160	0.774	1772059680.109
423	900.000	0.003	899.997	0.026	5.871	1772059680.440
424	900.000	0.020	899.999	0.052	4.333	1772059680.706
425	900.000	-0.012	900.003	0.101	0.755	1772059681.009
426	900.000	-0.014	899.999	0.041	4.863	1772059681.330
427	900.000	0.007	900.003	0.080	1.170	1772059681.639
428	900.000	-0.014	899.999	0.135	0.684	1772059681.932
429	900.000	-0.006	900.003	0.076	5.039	1772059682.185
430	900.000	0.014	899.997	0.076	0.968	1772059682.438
431	900.000	-0.014	899.999	0.120	0.849	1772059682.713
432	900.000	-0.011	899.998	0.064	4.757	1772059683.015
433	900.000	0.016	899.999	0.057	1.284	1772059683.300
434	900.000	-0.035	900.001	0.126	0.256	1772059683.619
435	900.000	0.005	899.997	0.110	5.257	1772059683.882
436	900.000	0.043	899.996	0.094	1.156	1772059684.211
437	900.000	0.027	899.999	0.067	4.939	1772059684.507
438	900.000	-0.003	900.004	0.077	4.829	1772059684.819
439	900.000	0.008	900.001	0.158	0.678	1772059685.136
440	900.000	-0.003	899.998	0.051	4.634	1772059685.462
441	900.000	0.034	900.000	0.070	2.521	1772059685.740
442	900.000	-0.018	900.005	0.109	0.349	1772059686.035
443	900.000	0.001	900.002	0.092	4.962	1772059686.323
444	900.000	-0.026	899.997	0.062	1.862	1772059686.642
445	900.000	0.032	900.002	0.088	0.362	1772059686.953
446	900.000	-0.012	900.001	0.082	4.155	1772059687.261
447	900.000	-0.022	900.000	0.104	0.898	1772059687.536
448	900.000	-0.007	899.998	0.067	5.945	1772059687.836
449	900.000	-0.016	900.000	0.074	4.136	1772059688.153
450	900.000	-0.013	900.002	0.123	0.862	1772059688.485
451	900.000	0.011	899.998	0.066	4.451	1772059688.779
452	900.000	-0.000	900.000	0.049	0.310	1772059689.086
453	900.000	-0.017	899.998	0.114	0.294	1772059689.393
454	900.000	0.010	900.001	0.055	4.770	1772059689.726
455	900.000	-0.010	899.999	0.135	0.845	1772059690.026
456	900.000	0.010	900.000	0.059	5.652	1772059690.347
457	900.000	-0.054	899.996	0.038	3.728	1772059690.633
458	900.000	0.035	899.999	0.104	0.905	1772059690.897
459	900.000	-0.009	900.001	0.038	5.915	1772059691.222
460	900.000	-0.015	899.997	0.041	2.388	1772059691.545
461	900.000	0.012	900.000	0.110	0.656	1772059691.824
462	900.000	0.003	900.002	0.042	3.754	1772059692.101
463	900.000	-0.019	900.000	0.051	3.113	1772059692.391
464	900.000	0.007	900.003	0.148	0.933	1772059692.693
465	900.000	-0.007	899.999	0.086	4.708	1772059692.956
466	900.000	-0.008	899.994	0.042	1.333	1772059693.214
467	900.000	0.022	899.998	0.152	0.654	1772059693.535
468	900.000	0.007	900.000	0.092	5.197	1772059693.850
469	900.000	0.004	900.000	0.065	0.494	1772059694.169
470	900.000	0.022	899.999	0.077	0.478	1772059694.450
471	900.000	-0.015	899.998	0.082	4.409	1772059694.770
472	900.000	-0.002	900.000	0.098	1.034	1772059695.101
473	900.000	-0.013	899.999	0.120	6.017	1772059695.407
474	900.000	-0.011	899.999	0.034	2.765	1772059695.697
475	900.000	0.027	900.001	0.118	0.770	1772059696.010
476	900.000	-0.009	900.000	0.068	4.514	1772059696.273
477	900.000	-0.005	900.000	0.040	1.386	1772059696.603
478	900.000	-0.009	900.004	0.053	1.206	1772059696.873
479	900.000	-0.020	900.001	0.055	5.388	1772059697.156
480	900.000	-0.023	899.998	0.039	1.969	1772059697.432
481	900.000	0.040	899.996	0.073	0.891	1772059697.719
482	900.000	0.002	900.000	0.045	4.599	1772059698.024
483	900.000	-0.038	900.001	0.069	2.231	1772059698.368
484	900.000	-0.008	899.999	0.091	0.080	1772059698.664
485	900.000	-0.013	899.997	0.058	4.450	1772059698.953
486	900.000	-0.024	899.999	0.083	1.018	1772059699.201
487	900.000	-0.015	900.000	0.092	6.254	1772059699.453
488	900.000	0.003	900.001	0.038	4.613	1772059699.766
489	900.000	-0.008	900.001	0.062	0.766	1772059700.018
490	900.000	-0.004	900.000	0.042	0.349	1772059700.298
491	900.000	-0.030	900.005	0.093	3.854	1772059700.585
492	900.000	0.012	899.998	0.065	1.843	1772059700.874
493	900.000	-0.022	899.997	0.103	0.394	1772059701.198
494	900.000	0.011	900.000	0.053	6.174	1772059701.499
495	900.000	0.017	900.000	0.154	0.855	1772059701.812
496	900.000	-0.003	899.999	0.078	4.701	1772059702.123
497	900.000	-0.027	900.001	0.046	1.909	1772059702.427
498	900.000	0.003	899.997	0.102	0.566	1772059702.685
499	900.000	-0.027	900.007	0.022	5.624	1772059702.987
500	900.000	0.004	899.999	0.062	1.543	1772059703.246
501	900.000	0.015	900.003	0.111	0.842	1772059703.543
502	900.000	0.006	899.997	0.073	4.568	1772059703.863
503	900.000	0.015	899.999	0.146	1.329	1772059704.184
504	900.000	-0.004	900.002	0.030	6.045	1772059704.516
505	900.000	0.021	900.001	0.014	2.470	1772059704.819
506	900.000	-0.003	899.999	0.144	0.906	1772059705.102
507	900.000	0.025	900.001	0.081	4.383	1772059705.454
508	900.000	0.014	900.003	0.051	0.218	1772059705.729
509	900.000	-0.013	899.997	0.079	0.816	1772059705.957
510	900.000	-0.017	900.002	0.092	5.345	1772059706.235
511	900.000	0.005	900.000	0.008	0.351	1772059706.557
512	900.000	-0.009	900.002	0.116	0.985	1772059706.875
513	900.000	0.028	899.996	0.093	4.529	1772059707.154
514	900.000	-0.023	899.998	0.048	5.524	1772059707.404
515	900.000	-0.010	900.000	0.100	0.912	1772059707.681
516	900.000	-0.008	900.001	0.050	4.265	1772059707.998
517	900.000	-0.025	899.998	0.075	2.147	1772059708.321
518	900.000	-0.006	899.995	0.086	0.483	1772059708.617
519	900.000	-0.016	899.998	0.037	5.213	1772059708.927
520	900.000	0.012	899.998	0.152	0.955	1772059709.246
521	900.000	-0.026	899.999	0.075	5.332	1772059709.546
522	900.000	0.006	899.999	0.064	1.552	1772059709.850
523	900.000	0.008	900.001	0.096	0.220	1772059710.123
524	900.000	0.028	899.997	0.079	5.054	1772059710.446
525	900.000	0.023	899.999	0.082	1.784	1772059710.745
526	900.000	-0.015	899.999	0.092	0.316	1772059711.077
527	900.000	0.017	899.997	0.087	4.475	1772059711.360
528	900.000	-0.025	899.998	0.121	1.313	1772059711.707
529	900.000	-0.025	899.999	0.063	5.979	1772059711.991
530	900.000	-0.005	900.001	0.050	4.439	1772059712.334
531	900.000	-0.029	899.999	0.123	1.135	1772059712.582
532	900.000	-0.011	900.002	0.084	5.625	1772059712.879
533	900.000	0.001	900.000	0.044	6.155	1772059713.203
534	900.000	-0.014	899.999	0.058	1.431	1772059713.506
535	900.000	0.004	900.001	0.112	4.842	1772059713.788
536	900.000	-0.011	900.000	0.067	1.253	1772059714.068
537	900.000	-0.005	900.004	0.109	0.749	1772059714.378
538	900.000	0.010	900.001	0.050	4.438	1772059714.677
539	900.000	-0.043	900.001	0.095	1.321	1772059715.005
540	900.000	0.032	899.997	0.071	5.957	1772059715.316
541	900.000	0.017	899.999	0.057	4.195	1772059715.615
542	900.000	-0.008	900.002	0.154	0.854	1772059715.905
543	900.000	-0.001	899.999	0.049	5.313	1772059716.191
544	900.000	-0.010	900.000	0.018	2.113	1772059716.448
545	900.000	0.016	899.999	0.128	0.730	1772059716.745
546	900.000	0.010	899.999	0.084	5.047	1772059717.016
547	900.000	-0.003	899.998	0.013	3.523	1772059717.336
548	900.000	0.021	900.002	0.111	0.595	1772059717.632
549	900.000	-0.018	899.999	0.090	5.221	1772059717.967
550	900.000	-0.009	900.000	0.133	0.799	1772059718.260
551	900.000	-0.027	899.999	0.119	0.036	1772059718.590
552	900.000	0.011	900.000	0.076	4.750	1772059718.884
553	900.000	-0.007	899.999	0.088	1.087	1772059719.186
554	900.000	-0.001	900.000	0.063	5.789	1772059719.498
555	900.000	0.018	899.999	0.085	6.270	1772059719.739
556	900.000	0.009	899.998	0.058	1.513	1772059720.056
557	900.000	0.004	900.001	0.058	5.421	1772059720.326
558	900.000	0.021	900.001	0.075	5.359	1772059720.601
559	900.000	-0.000	900.006	0.058	1.152	1772059720.873
560	900.000	0.012	900.001	0.088	4.733	1772059721.206
561	900.000	-0.014	900.003	0.041	1.522	1772059721.525
562	900.000	0.007	899.999	0.060	0.825	1772059721.811
563	900.000	0.023	900.001	0.085	4.432	1772059722.150
564	900.000	-0.006	900.000	0.096	0.717	1772059722.444
565	900.000	0.016	900.002	0.109	0.454	1772059722.680
566	900.000	0.019	900.001	0.042	5.481	1772059722.947
567	900.000	-0.040	899.999	0.084	1.151	1772059723.252
568	900.000	0.003	900.000	0.034	1.366	1772059723.559
569	900.000	0.012	899.999	0.065	5.252	1772059723.840
570	900.000	0.029	899.999	0.102	1.047	1772059724.139
571	900.000	-0.032	899.999	0.080	3.846	1772059724.427
572	900.000	0.009	900.000	0.051	4.229	1772059724.694
573	900.000	0.014	900.001	0.114	0.928	1772059724.988
574	900.000	0.012	900.003	0.079	5.266	1772059725.262
575	900.000	0.013	900.000	0.031	4.959	1772059725.554
576	900.000	0.010	900.002	0.081	1.106	1772059725.816
577	900.000	0.003	900.002	0.115	5.620	1772059726.130
578	900.000	-0.046	899.999	0.025	0.396	1772059726.443
579	900.000	-0.002	900.001	0.131	1.088	1772059726.735
580	900.000	-0.001	899.997	0.083	4.780	1772059727.055
581	900.000	0.020	900.001	0.067	4.024	1772059727.330
582	900.000	0.040	900.000	0.108	0.654	1772059727.644
583	900.000	-0.002	899.998	0.059	5.447	1772059727.928
584	900.000	0.031	900.000	0.092	1.072	1772059728.246
585	900.000	-0.018	899.998	0.047	0.264	1772059728.524
586	900.000	0.006	899.998	0.112	4.559	1772059728.809
587	900.000	0.018	899.998	0.088	1.471	1772059729.066
588	900.000	-0.012	900.002	0.111	0.150	1772059729.390
589	900.000	-0.009	899.999	0.044	4.274	1772059729.688
590	900.000	-0.010	899.999	0.104	1.413	1772059730.027
591	900.000	0.019	899.999	0.078	5.110	1772059730.322
592	900.000	-0.001	900.003	0.022	2.432	1772059730.635
593	900.000	-0.006	899.999	0.096	0.638	1772059730.926
594	900.000	-0.015	899.999	0.090	4.588	1772059731.235
595	900.000	-0.036	900.004	0.083	1.840	1772059731.508
596	900.000	-0.004	900.001	0.073	1.649	1772059731.762
597	900.000	0.013	899.999	0.070	5.014	1772059732.068
598	900.000	0.003	900.002	0.067	2.966	1772059732.374
599	900.000	0.013	899.999	0.053	0.425	1772059732.691
600	900.000	-0.018	899.996	0.087	4.527	1772059732.990
601	900.000	0.027	900.003	0.173	1.016	1772059733.320
602	900.000	-0.017	899.997	0.037	5.669	1772059733.637
603	900.000	0.008	900.000	0.029	3.346	1772059733.938
604	900.000	-0.008	900.002	0.081	0.683	1772059734.234
605	900.000	-0.015	900.001	0.103	4.829	1772059734.514
606	900.000	0.010	899.996	0.056	1.976	1772059734.811
607	900.000	0.022	899.998	0.085	1.203	1772059735.114
608	900.000	-0.013	899.999	0.109	4.386	1772059735.391
609	900.000	-0.022	900.000	0.094	1.491	1772059735.711
610	900.000	-0.006	899.998	0.128	6.246	1772059736.001
611	900.000	-0.023	899.998	0.085	5.209	1772059736.312
612	900.000	-0.001	899.999	0.123	1.170	1772059736.575
613	900.000	0.010	900.002	0.097	6.201	1772059736.904
614	900.000	0.023	900.002	0.072	4.106	1772059737.190
615	900.000	-0.012	899.999	0.086	1.384	1772059737.448
616	900.000	0.010	900.000	0.030	5.029	1772059737.771
617	900.000	0.014	900.000	0.030	2.497	1772059738.087
618	900.000	0.021	899.998	0.149	1.029	1772059738.389
619	900.000	-0.016	900.001	0.058	4.598	1772059738.696
620	900.000	0.044	899.996	0.087	0.976	1772059738.998
621	900.000	-0.040	900.002	0.027	5.873	1772059739.302
622	900.000	0.004	900.000	0.091	4.850	1772059739.616
623	900.000	-0.003	900.002	0.093	1.256	1772059739.875
624	900.000	0.009	900.002	0.098	0.257	1772059740.116
625	900.000	0.008	900.000	0.084	3.922	1772059740.367
626	900.000	-0.025	900.001	0.115	1.002	1772059740.627
627	900.000	-0.025	900.002	0.192	0.688	1772059740.863
628	900.000	0.024	900.000	0.118	5.900	1772059741.144
629	900.000	-0.011	900.000	0.064	2.023	1772059741.440
630	900.000	-0.015	900.001	0.113	0.683	1772059741.753
631	900.000	0.007	899.998	0.092	4.389	1772059742.068
632	900.000	-0.019	899.999	0.109	1.331	1772059742.388
633	900.000	0.005	899.998	0.018	2.713	1772059742.713
634	900.000	-0.002	900.001	0.020	4.318	1772059743.038
635	900.000	0.005	900.001	0.103	1.388	1772059743.324
636	900.000	-0.027	899.998	0.022	5.582	1772059743.598
637	900.000	0.014	900.003	0.035	5.661	1772059743.913
638	900.000	-0.023	900.000	0.122	0.698	1772059744.183
639	900.000	0.022	899.997	0.061	4.733	1772059744.463
640	900.000	-0.003	900.000	0.026	2.303	1772059744.761
641	900.000	-0.017	899.999	0.184	0.314	1772059745.044
642	900.000	0.015	900.002	0.064	4.891	1772059745.346
643	900.000	0.001	900.000	0.042	0.648	1772059745.676
644	900.000	0.018	900.000	0.091	0.420	1772059745.977
645	900.000	-0.025	900.001	0.066	5.580	1772059746.256
646	900.000	0.016	899.997	0.076	1.316	1772059746.533
647	900.000	-0.023	899.998	0.085	0.539	1772059746.831
648	900.000	-0.020	899.999	0.099	3.848	1772059747.082
649	900.000	-0.005	900.000	0.092	0.392	1772059747.333
650	900.000	0.024	900.001	0.039	0.881	1772059747.645
651	900.000	-0.014	900.001	0.123	4.478	1772059747.953
652	900.000	-0.005	900.004	0.062	2.028	1772059748.207
653	900.000	-0.009	899.997	0.048	5.919	1772059748.518
654	900.000	-0.007	900.002	0.067	3.871	1772059748.833
655	900.000	-0.009	900.002	0.064	0.751	1772059749.154
656	900.000	-0.014	899.999	0.084	4.875	1772059749.480
657	900.000	-0.030	899.998	0.019	2.507	1772059749.762
658	900.000	-0.007	900.003	0.104	0.630	1772059750.072
659	900.000	0.040	900.002	0.098	4.410	1772059750.326
660	900.000	0.005	900.001	0.090	6.228	1772059750.586
661	900.000	-0.034	900.000	0.127	0.482	1772059750.890
662	900.000	-0.030	899.999	0.085	4.826	1772059751.231
663	900.000	-0.019	899.997	0.101	1.372	1772059751.530
664	900.000	0.015	900.000	0.096	0.008	1772059751.790
665	900.000	0.006	900.000	0.055	5.229	1772059752.018
666	900.000	-0.007	899.998	0.063	1.172	1772059752.293
667	900.000	0.017	900.000	0.083	0.459	1772059752.530
668	900.000	-0.021	900.000	0.078	4.944	1772059752.796
669	900.000	0.008	900.000	0.023	5.667	1772059753.041
670	900.000	-0.018	900.000	0.185	0.247	1772059753.305
671	900.000	-0.002	900.001	0.133	5.090	1772059753.590
672	900.000	0.026	900.004	0.025	2.672	1772059753.874
673	900.000	-0.023	899.998	0.071	1.322	1772059754.198
674	900.000	0.003	900.000	0.064	4.673	1772059754.484
675	900.000	0.012	900.000	0.148	0.756	1772059754.804
676	900.000	-0.002	900.000	0.073	5.932	1772059755.114
677	900.000	-0.032	900.003	0.033	4.770	1772059755.431
678	900.000	-0.009	900.001	0.114	1.026	1772059755.738
679	900.000	-0.016	900.001	0.058	5.099	1772059756.041
680	900.000	0.016	899.999	0.046	0.409	1772059756.347
681	900.000	-0.012	899.997	0.107	0.923	1772059756.625
682	900.000	-0.011	900.001	0.136	4.436	1772059756.904
683	900.000	0.033	900.001	0.020	0.956	1772059757.174
684	900.000	0.039	900.003	0.085	0.897	1772059757.483
685	900.000	0.021	899.998	0.103	4.838	1772059757.740
686	900.000	-0.006	899.999	0.024	1.563	1772059758.047
687	900.000	0.000	899.999	0.119	0.573	1772059758.363
688	900.000	0.003	900.000	0.080	4.931	1772059758.616
689	900.000	0.004	900.004	0.087	1.218	1772059758.880
690	900.000	-0.020	900.001	0.043	0.234	1772059759.188
691	900.000	-0.001	899.999	0.021	5.442	1772059759.505
692	900.000	0.001	900.003	0.111	1.082	1772059759.801
693	900.000	0.013	900.000	0.058	6.031	1772059760.121
694	900.000	-0.001	899.997	0.046	4.084	1772059760.421
695	900.000	0.010	900.004	0.140	0.720	1772059760.683
696	900.000	0.038	899.999	0.069	4.512	1772059761.010
697	900.000	-0.003	899.997	0.030	5.882	1772059761.301
698	900.000	0.003	899.998	0.103	0.879	1772059761.589
699	900.000	-0.012	899.994	0.126	4.212	1772059761.865
700	900.000	-0.039	900.003	0.007	0.888	1772059762.121
701	900.000	-0.007	900.004	0.080	0.144	1772059762.430
702	900.000	0.002	899.997	0.157	4.531	1772059762.702
703	900.000	-0.043	900.003	0.062	0.636	1772059762.985
704	900.000	0.018	899.998	0.067	0.462	1772059763.318
705	900.000	0.024	900.000	0.103	4.564	1772059763.616
706	900.000	0.023	900.001	0.102	1.202	1772059763.935
707	900.000	0.031	899.999	0.051	5.359	1772059764.211
708	900.000	-0.009	900.004	0.074	3.722	1772059764.478
709	900.000	0.043	900.003	0.082	1.283	1772059764.729
710	900.000	-0.001	899.998	0.134	0.173	1772059764.994
711	900.000	0.036	900.001	0.062	4.546	1772059765.309
712	900.000	-0.013	900.001	0.155	0.978	1772059765.598
713	900.000	-0.017	900.002	0.083	5.178	1772059765.893
714	900.000	0.010	900.000	0.022	5.497	1772059766.195
715	900.000	-0.007	900.003	0.149	0.631	1772059766.478
716	900.000	-0.007	900.000	0.062	4.403	1772059766.818
717	900.000	0.037	900.001	0.073	1.649	1772059767.099
718	900.000	0.012	900.002	0.120	0.879	1772059767.374
719	900.000	-0.015	899.995	0.093	5.256	1772059767.671
720	900.000	-0.003	899.998	0.075	0.492	1772059767.929
721	900.000	0.019	899.999	0.128	1.195	1772059768.237
722	900.000	-0.038	899.999	0.077	4.081	1772059768.549
723	900.000	0.006	900.002	0.083	0.910	1772059768.879
724	900.000	0.010	900.002	0.082	6.140	1772059769.203
725	900.000	-0.012	900.003	0.032	2.599	1772059769.496
726	900.000	0.018	899.996	0.107	0.182	1772059769.787
727	900.000	-0.051	900.001	0.057	4.092	1772059770.055
728	900.000	0.002	900.002	0.043	0.297	1772059770.371
729	900.000	-0.033	900.000	0.121	0.601	1772059770.671
730	900.000	0.006	900.004	0.069	4.560	1772059770.979
731	900.000	0.015	900.003	0.105	0.643	1772059771.312
732	900.000	-0.009	899.998	0.093	0.008	1772059771.626
733	900.000	-0.009	900.002	0.033	2.587	1772059771.901
734	900.000	-0.010	899.999	0.163	1.202	1772059772.175
735	900.000	-0.020	899.997	0.066	0.181	1772059772.495
736	900.000	0.037	900.002	0.036	0.167	1772059772.795
737	900.000	-0.001	900.001	0.067	1.301	1772059773.102
738	900.000	0.001	899.997	0.066	5.203	1772059773.442
739	900.000	-0.000	899.998	0.092	0.820	1772059773.736
740	900.000	-0.015	899.997	0.083	0.301	1772059774.055
741	900.000	-0.020	900.003	0.064	4.493	1772059774.319
742	900.000	0.014	899.999	0.150	0.952	1772059774.615
743	900.000	0.042	899.998	0.051	6.210	1772059774.875
744	900.000	0.004	899.997	0.058	4.607	1772059775.208
745	900.000	0.012	900.001	0.121	1.235	1772059775.508
746	900.000	-0.031	900.000	0.069	5.011	1772059775.824
747	900.000	-0.000	900.002	0.053	0.183	1772059776.134
748	900.000	0.013	900.002	0.115	0.723	1772059776.437
749	900.000	-0.015	900.002	0.080	4.635	1772059776.761
750	900.000	-0.009	900.000	0.127	0.810	1772059777.081
751	900.000	0.006	900.003	0.076	0.634	1772059777.388
752	900.000	0.028	900.003	0.034	4.398	1772059777.700
753	900.000	-0.002	900.000	0.117	1.027	1772059777.992
754	900.000	-0.000	900.000	0.076	0.412	1772059778.269
755	900.000	-0.008	899.999	0.050	5.207	1772059778.599
756	900.000	-0.023	900.000	0.168	0.696	1772059778.889
757	900.000	-0.011	899.998	0.041	4.943	1772059779.221
758	900.000	-0.028	900.001	0.043	1.550	1772059779.514
759	900.000	-0.013	899.999	0.050	0.301	1772059779.837
760	900.000	-0.026	899.997	0.079	4.872	1772059780.145
761	900.000	-0.010	900.000	0.109	1.033	1772059780.414
762	900.000	0.001	900.000	0.111	0.436	1772059780.712
763	900.000	-0.017	900.000	0.081	4.947	1772059781.002
764	900.000	0.020	899.997	0.115	1.422	1772059781.342
765	900.000	-0.019	899.997	0.080	4.754	1772059781.653
766	900.000	0.015	900.000	0.014	0.199	1772059781.949
767	900.000	-0.043	899.999	0.071	0.721	1772059782.205
768	900.000	0.026	900.001	0.010	4.958	1772059782.536
769	900.000	0.010	900.001	0.045	1.516	1772059782.844
770	900.000	0.011	900.003	0.054	6.226	1772059783.165
771	900.000	0.029	900.000	0.095	4.082	1772059783.439
772	900.000	-0.010	899.998	0.098	0.343	1772059783.720
773	900.000	-0.004	900.000	0.038	0.604	1772059784.024
774	900.000	0.010	900.000	0.011	5.642	1772059784.349
775	900.000	-0.010	899.996	0.080	0.929	1772059784.644
776	900.000	0.004	900.001	0.080	5.697	1772059784.959
777	900.000	0.000	899.999	0.037	2.448	1772059785.272
778	900.000	0.020	899.998	0.048	0.607	1772059785.595
779	900.000	-0.038	899.999	0.121	4.455	1772059785.878
780	900.000	-0.008	899.997	0.067	1.090	1772059786.147
781	900.000	-0.018	900.000	0.126	0.325	1772059786.475
782	900.000	-0.016	899.998	0.052	4.238	1772059786.756
783	900.000	0.016	899.998	0.112	1.684	1772059787.063
784	900.000	-0.002	899.998	0.050	5.943	1772059787.366
785	900.000	0.008	900.001	0.091	4.635	1772059787.655
786	900.000	0.026	899.995	0.086	1.538	1772059787.964
787	900.000	0.002	900.001	0.111	5.147	1772059788.273
788	900.000	-0.025	900.003	0.068	1.326	1772059788.573
789	900.000	0.003	900.000	0.145	0.714	1772059788.826
790	900.000	0.009	900.002	0.122	4.487	1772059789.158
791	900.000	0.004	900.004	0.066	1.154	1772059789.467
792	900.000	0.014	900.002	0.082	0.490	1772059789.779
793	900.000	-0.002	899.996	0.065	3.914	1772059790.066
794	900.000	-0.020	900.001	0.122	1.021	1772059790.393
795	900.000	-0.006	900.003	0.086	6.017	1772059790.711
796	900.000	-0.018	900.000	0.082	4.137	1772059790.951
797	900.000	0.029	900.000	0.146	0.886	1772059791.261
798	900.000	-0.012	899.998	0.023	0.231	1772059791.513
799	900.000	-0.022	899.998	0.059	4.816	1772059791.799
800	900.000	0.020	900.001	0.105	1.324	1772059792.109
801	900.000	-0.036	900.003	0.077	5.829	1772059792.412
802	900.000	0.014	900.000	0.062	5.535	1772059792.691
803	900.000	-0.007	899.997	0.110	1.135	1772059792.972
804	900.000	0.003	900.000	0.105	5.112	1772059793.275
805	900.000	0.015	900.001	0.042	2.069	1772059793.603
806	900.000	0.009	899.997	0.073	0.557	1772059793.888
807	900.000	-0.026	899.999	0.124	3.734	1772059794.204
808	900.000	0.017	900.001	0.117	1.249	1772059794.467
809	900.000	0.004	900.001	0.056	0.323	1772059794.754
810	900.000	0.001	899.999	0.088	5.009	1772059795.030
811	900.000	-0.007	900.000	0.125	1.430	1772059795.344
812	900.000	-0.010	900.001	0.023	0.263	1772059795.657
813	900.000	-0.024	900.000	0.013	4.642	1772059795.953
814	900.000	0.005	899.997	0.132	0.516	1772059796.283
815	900.000	0.020	900.003	0.026	5.179	1772059796.584
816	900.000	0.005	900.004	0.010	5.256	1772059796.916
817	900.000	-0.017	899.998	0.110	0.563	1772059797.198
818	900.000	0.027	900.001	0.087	5.221	1772059797.510
819	900.000	0.008	899.998	0.077	1.312	1772059797.844
820	900.000	0.014	900.001	0.031	1.073	1772059798.137
821	900.000	0.040	900.001	0.073	2.944	1772059798.440
822	900.000	-0.021	899.999	0.157	0.972	1772059798.755
823	900.000	-0.001	899.999	0.062	5.243	1772059799.026
824	900.000	-0.003	900.006	0.026	5.553	1772059799.334
825	900.000	-0.027	900.004	0.075	0.912	1772059799.657
826	900.000	-0.004	900.001	0.065	4.470	1772059799.969
827	900.000	-0.018	899.998	0.044	1.376	1772059800.271
828	900.000	0.022	900.000	0.100	1.174	1772059800.514
829	900.000	0.020	899.998	0.141	5.128	1772059800.775
830	900.000	-0.003	900.003	0.031	1.445	1772059801.089
831	900.000	0.008	900.002	0.128	0.708	1772059801.396
832	900.000	0.016	900.001	0.066	4.011	1772059801.704
833	900.000	0.029	899.999	0.114	0.981	1772059801.936
834	900.000	-0.008	900.002	0.087	0.242	1772059802.207
835	900.000	0.018	900.000	0.106	4.891	1772059802.531
836	900.000	-0.003	899.997	0.071	1.295	1772059802.827
837	900.000	-0.027	900.001	0.010	0.911	1772059803.104
838	900.000	-0.025	900.001	0.077	4.401	1772059803.392
839	900.000	0.024	899.996	0.062	0.252	1772059803.648
840	900.000	0.007	900.003	0.066	0.270	1772059803.968
841	900.000	-0.008	899.996	0.055	4.363	1772059804.278
842	900.000	-0.018	900.001	0.062	0.964	1772059804.594
843	900.000	-0.010	899.999	0.068	4.673	1772059804.887
844	900.000	-0.021	900.001	0.068	3.677	1772059805.165
845	900.000	0.005	900.002	0.148	0.955	1772059805.467
846	900.000	-0.005	900.000	0.105	4.335	1772059805.766
847	900.000	0.004	900.001	0.076	0.592	1772059806.094
848	900.000	-0.020	899.999	0.048	0.224	1772059806.407
849	900.000	-0.033	899.996	0.154	4.323	1772059806.729
850	900.000	0.021	899.999	0.126	0.930	1772059807.000
851	900.000	0.033	899.997	0.039	0.179	1772059807.323
852	900.000	-0.001	900.000	0.045	4.377	1772059807.578
853	900.000	-0.001	900.005	0.114	0.920	1772059807.886
854	900.000	-0.008	900.000	0.039	5.802	1772059808.196
855	900.000	-0.005	899.998	0.073	3.954	1772059808.453
856	900.000	0.005	899.997	0.136	0.902	1772059808.737
857	900.000	-0.032	899.999	0.053	4.089	1772059809.053
858	900.000	0.028	900.003	0.031	4.164	1772059809.353
859	900.000	-0.003	899.999	0.103	1.270	1772059809.653
860	900.000	0.001	899.999	0.118	4.793	1772059809.946
861	900.000	-0.006	900.002	0.052	0.945	1772059810.238
862	900.000	0.004	900.000	0.039	1.292	1772059810.545
863	900.000	0.004	899.999	0.105	4.507	1772059810.833
864	900.000	-0.023	899.998	0.075	1.798	1772059811.162
865	900.000	0.029	900.003	0.033	5.502	1772059811.481
866	900.000	0.021	900.001	0.049	4.164	1772059811.785
867	900.000	0.019	899.999	0.137	1.322	1772059812.098
868	900.000	0.008	900.003	0.032	5.500	1772059812.398
869	900.000	-0.011	899.998	0.063	1.382	1772059812.706
870	900.000	0.009	900.000	0.144	0.893	1772059812.975
871	900.000	-0.000	900.002	0.093	4.524	1772059813.271
872	900.000	0.021	900.000	0.059	2.049	1772059813.569
873	900.000	0.008	900.002	0.119	0.507	1772059813.842
874	900.000	0.023	899.997	0.072	5.112	1772059814.179
875	900.000	0.030	899.997	0.107	0.964	1772059814.466
876	900.000	0.010	900.001	0.058	1.285	1772059814.733
877	900.000	0.021	900.001	0.041	4.912	1772059815.053
878	900.000	-0.006	899.999	0.099	0.879	1772059815.365
879	900.000	-0.004	900.001	0.075	5.955	1772059815.671
880	900.000	-0.009	900.001	0.054	4.948	1772059815.975
881	900.000	-0.023	899.997	0.063	0.890	1772059816.219
882	900.000	-0.007	900.000	0.060	6.188	1772059816.565
883	900.000	-0.019	900.002	0.054	0.389	1772059816.869
884	900.000	0.029	899.998	0.099	0.016	1772059817.187
885	900.000	-0.007	900.003	0.086	4.220	1772059817.492
886	900.000	-0.011	899.999	0.131	0.602	1772059817.778
887	900.000	0.018	899.999	0.028	0.737	1772059818.037
888	900.000	0.014	899.999	0.077	4.322	1772059818.363
889	900.000	-0.005	899.999	0.071	1.326	1772059818.642
890	900.000	0.033	900.000	0.126	0.182	1772059818.891
891	900.000	0.007	900.003	0.088	4.883	1772059819.182
892	900.000	0.015	900.004	0.120	0.816	1772059819.469
893	900.000	-0.010	900.004	0.061	6.023	1772059819.762
894	900.000	0.008	900.003	0.040	4.176	1772059820.075
895	900.000	0.032	900.003	0.132	1.613	1772059820.398
896	900.000	0.003	899.997	0.096	5.473	1772059820.686
897	900.000	0.006	900.001	0.065	1.478	1772059821.007
898	900.000	-0.022	899.998	0.114	1.221	1772059821.290
899	900.000	0.011	900.001	0.070	4.632	1772059821.550
900	900.000	-0.001	899.999	0.056	2.398	1772059821.792
901	900.000	0.001	899.997	0.106	1.577	1772059822.090
902	900.000	-0.040	900.002	0.127	5.293	1772059822.379
903	900.000	-0.001	900.007	0.035	0.898	1772059822.691
904	900.000	0.001	900.002	0.038	0.450	1772059823.010
905	900.000	-0.045	900.002	0.073	4.907	1772059823.301
906	900.000	0.002	899.998	0.112	1.224	1772059823.626
907	900.000	0.033	900.000	0.059	0.582	1772059823.875
908	900.000	0.008	899.999	0.061	4.179	1772059824.156
909	900.000	-0.010	900.003	0.102	1.194	1772059824.458
910	900.000	0.001	899.990	0.059	6.196	1772059824.762
911	900.000	-0.004	900.001	0.042	4.389	1772059825.086
912	900.000	0.006	899.998	0.109	0.801	1772059825.411
913	900.000	0.001	900.003	0.028	6.240	1772059825.712
914	900.000	0.035	900.002	0.048	0.498	1772059825.989
915	900.000	-0.031	899.996	0.089	0.488	1772059826.275
916	900.000	0.013	900.000	0.100	4.665	1772059826.588
917	900.000	0.003	899.998	0.047	0.086	1772059826.898
918	900.000	0.013	900.003	0.146	0.713	1772059827.189
919	900.000	0.006	900.001	0.040	5.121	1772059827.521
920	900.000	0.000	900.003	0.148	0.986	1772059827.827
921	900.000	0.046	900.002	0.057	0.118	1772059828.152
922	900.000	0.004	900.001	0.057	3.324	1772059828.427
923	900.000	-0.023	899.998	0.151	0.678	1772059828.702
924	900.000	0.024	900.000	0.066	0.067	1772059828.964
925	900.000	0.034	900.001	0.066	4.339	1772059829.279
926	900.000	-0.030	900.003	0.069	0.260	1772059829.595
927	900.000	-0.010	899.999	0.098	4.495	1772059829.901
928	900.000	-0.002	900.001	0.089	1.985	1772059830.217
929	900.000	0.007	899.999	0.089	1.416	1772059830.523
930	900.000	0.051	899.998	0.058	3.969	1772059830.841
931	900.000	-0.034	900.003	0.153	1.285	1772059831.136
932	900.000	-0.017	900.004	0.031	5.584	1772059831.383
933	900.000	0.015	900.000	0.096	4.830	1772059831.660
934	900.000	-0.010	900.000	0.055	1.132	1772059831.973
935	900.000	-0.036	899.999	0.072	0.563	1772059832.278
936	900.000	-0.003	900.000	0.034	5.527	1772059832.586
937	900.000	-0.007	900.003	0.142	0.821	1772059832.899
938	900.000	-0.010	899.999	0.036	3.754	1772059833.134
939	900.000	-0.008	900.002	0.014	4.410	1772059833.474
940	900.000	-0.015	900.002	0.146	0.662	1772059833.790
941	900.000	0.011	899.998	0.060	4.531	1772059834.095
942	900.000	-0.015	899.998	0.065	1.139	1772059834.407
943	900.000	0.019	899.999	0.110	0.229	1772059834.705
944	900.000	0.008	900.004	0.093	4.932	1772059835.019
945	900.000	0.004	899.998	0.137	0.844	1772059835.332
946	900.000	-0.010	899.999	0.065	5.250	1772059835.660
947	900.000	0.029	899.999	0.037	5.925	1772059835.959
948	900.000	0.025	899.999	0.058	0.948	1772059836.250
949	900.000	-0.004	899.998	0.060	4.466	1772059836.550
950	900.000	-0.009	900.004	0.090	1.021	1772059836.878
951	900.000	-0.009	900.001	0.099	0.620	1772059837.189
952	900.000	0.017	899.999	0.053	4.956	1772059837.497
953	900.000	0.007	899.997	0.149	1.237	1772059837.803
954	900.000	0.006	899.999	0.047	0.184	1772059838.067
955	900.000	-0.010	900.002	0.116	4.490	1772059838.373
956	900.000	-0.006	900.000	0.146	1.244	1772059838.689
957	900.000	0.009	900.000	0.049	5.494	1772059838.986
958	900.000	0.022	899.999	0.054	0.174	1772059839.309
959	900.000	-0.015	899.997	0.066	1.268	1772059839.579
960	900.000	-0.027	899.999	0.088	4.761	1772059839.861
961	900.000	0.058	900.002	0.007	2.444	1772059840.176
962	900.000	-0.017	900.000	0.102	1.101	1772059840.495
963	900.000	-0.017	900.001	0.089	5.188	1772059840.804
964	900.000	0.011	899.998	0.091	1.166	1772059841.107
965	900.000	-0.004	899.999	0.093	6.179	1772059841.436
966	900.000	-0.005	900.005	0.023	3.685	1772059841.759
967	900.000	-0.025	900.004	0.110	0.941	1772059842.031
968	900.000	0.008	899.998	0.020	4.823	1772059842.366
969	900.000	0.023	899.996	0.050	0.632	1772059842.692
970	900.000	0.039	899.999	0.072	0.691	1772059842.947
971	900.000	-0.014	899.999	0.103	4.963	1772059843.226
972	900.000	0.029	899.999	0.075	2.774	1772059843.525
973	900.000	-0.013	899.999	0.123	0.718	1772059843.767
974	900.000	-0.026	899.999	0.071	4.358	1772059844.101
975	900.000	0.008	900.002	0.084	1.515	1772059844.403
976	900.000	0.003	900.000	0.072	0.106	1772059844.714
977	900.000	-0.013	899.996	0.056	3.687	1772059845.039
978	900.000	0.007	900.000	0.160	1.006	1772059845.341
979	900.000	-0.003	900.000	0.045	4.746	1772059845.656
980	900.000	-0.005	899.999	0.048	6.039	1772059845.965
981	900.000	0.005	900.002	0.087	0.829	1772059846.267
982	900.000	-0.007	900.001	0.084	5.217	1772059846.603
983	900.000	0.040	900.001	0.111	0.876	1772059846.890
984	900.000	-0.022	900.001	0.079	0.248	1772059847.241
985	900.000	0.036	900.001	0.057	5.550	1772059847.538
986	900.000	-0.013	900.000	0.105	1.018	1772059847.840
987	900.000	-0.011	899.997	0.048	4.700	1772059848.168
988	900.000	-0.018	900.001	0.009	0.752	1772059848.473
989	900.000	-0.010	900.001	0.071	1.473	1772059848.764
990	900.000	-0.012	899.999	0.041	4.152	1772059848.991
991	900.000	0.010	900.004	0.055	0.538	1772059849.286
992	900.000	-0.004	900.000	0.105	1.055	1772059849.588
993	900.000	0.007	899.997	0.074	4.384	1772059849.897
994	900.000	0.029	900.001	0.113	1.360	1772059850.207
995	900.000	0.009	900.002	0.081	0.586	1772059850.519
996	900.000	0.063	899.998	0.047	3.925	1772059850.830
997	900.000	0.035	899.997	0.101	0.924	1772059851.145
998	900.000	-0.003	900.001	0.059	5.707	1772059851.439
999	900.000	0.030	899.999	0.031	3.859	1772059851.707
1000	900.000	-0.014	899.999	0.115	0.968	1772059851.985
1001	900.000	0.009	899.997	0.054	5.324	1772059852.299
1002	900.000	-0.008	899.999	0.026	0.710	1772059852.606
1003	900.000	-0.022	899.996	0.083	0.842	1772059852.907
1004	900.000	-0.025	899.999	0.096	5.083	1772059853.223
1005	900.000	-0.027	900.000	0.108	1.081	1772059853.528
1006	900.000	0.011	899.999	0.055	0.054	1772059853.839
1007	900.000	0.033	900.002	0.061	4.665	1772059854.160
1008	900.000	-0.007	899.999	0.147	0.931	1772059854.483
1009	900.000	-0.031	900.001	0.057	5.220	1772059854.768
1010	900.000	0.018	899.999	0.007	3.334	1772059855.076
1011	900.000	-0.024	899.996	0.186	0.261	1772059855.338
1012	900.000	-0.008	899.997	0.077	4.875	1772059855.637
1013	900.000	-0.022	900.004	0.037	0.576	1772059855.899
1014	900.000	-0.022	899.997	0.112	1.369	1772059856.217
1015	900.000	0.008	900.000	0.104	4.365	1772059856.517
1016	900.000	-0.006	899.999	0.077	1.377	1772059856.821
1017	900.000	0.028	899.996	0.120	0.914	1772059857.099
1018	900.000	-0.005	899.997	0.087	4.457	1772059857.389
1019	900.000	-0.034	900.001	0.084	1.087	1772059857.717
1020	900.000	-0.003	899.997	0.064	5.861	1772059858.027
1021	900.000	-0.017	899.996	0.015	5.976	1772059858.326
1022	900.000	-0.016	899.998	0.144	0.843	1772059858.642
1023	900.000	0.025	900.001	0.079	5.628	1772059858.960
1024	900.000	0.012	899.998	0.055	0.759	1772059859.220
1025	900.000	0.020	900.004	0.067	1.174	1772059859.520
1026	900.000	0.005	900.003	0.080	5.174	1772059859.814
1027	900.000	0.000	900.001	0.013	1.594	1772059860.074
1028	900.000	0.014	899.995	0.077	0.462	1772059860.360
1029	900.000	-0.023	899.997	0.061	4.142	1772059860.675
1030	900.000	-0.001	899.999	0.090	0.843	1772059860.979
1031	900.000	0.002	899.999	0.022	5.854	1772059861.272
1032	900.000	-0.028	899.999	0.063	5.046	1772059861.584
1033	900.000	-0.013	900.002	0.134	1.082	1772059861.896
1034	900.000	0.011	900.000	0.083	5.766	1772059862.220
1035	900.000	-0.001	899.995	0.009	3.157	1772059862.532
1036	900.000	0.017	899.998	0.062	1.048	1772059862.822
1037	900.000	-0.023	899.999	0.138	4.483	1772059863.137
1038	900.000	-0.031	900.003	0.092	1.087	1772059863.470
1039	900.000	0.013	900.002	0.027	0.474	1772059863.758
1040	900.000	-0.026	900.001	0.024	4.987	1772059864.010
1041	900.000	-0.029	899.998	0.105	1.673	1772059864.263
1042	900.000	0.023	900.002	0.082	1.194	1772059864.531
1043	900.000	-0.022	899.999	0.129	4.383	1772059864.857
1044	900.000	-0.024	899.999	0.113	0.654	1772059865.184
1045	900.000	-0.002	900.000	0.026	6.017	1772059865.460
1046	900.000	-0.009	900.001	0.081	5.824	1772059865.714
1047	900.000	0.017	899.997	0.101	1.271	1772059865.955
1048	900.000	-0.000	900.000	0.075	5.936	1772059866.225
1049	900.000	-0.028	900.002	0.081	4.333	1772059866.549
1050	900.000	0.023	899.997	0.139	0.720	1772059866.835
1051	900.000	0.007	900.002	0.028	5.055	1772059867.130
1052	900.000	0.009	900.000	0.035	4.476	1772059867.409
1053	900.000	0.011	899.999	0.080	2.035	1772059867.680
1054	900.000	-0.016	900.002	0.060	5.582	1772059867.982
1055	900.000	-0.004	900.004	0.020	6.069	1772059868.283
1056	900.000	0.025	899.995	0.136	0.674	1772059868.582
1057	900.000	0.004	899.997	0.031	5.852	1772059868.848
1058	900.000	-0.008	900.002	0.056	5.781	1772059869.114
1059	900.000	-0.013	900.000	0.045	1.038	1772059869.440
1060	900.000	-0.004	900.003	0.115	5.007	1772059869.728
1061	900.000	0.014	899.998	0.025	2.571	1772059870.029
1062	900.000	-0.006	900.000	0.081	0.421	1772059870.318
1063	900.000	0.046	899.996	0.043	4.812	1772059870.590
1064	900.000	-0.013	900.001	0.087	1.033	1772059870.925
1065	900.000	0.010	900.001	0.036	0.100	1772059871.210
1066	900.000	-0.049	899.998	0.053	5.362	1772059871.535
1067	900.000	0.022	899.999	0.152	1.297	1772059871.825
1068	900.000	-0.001	900.000	0.049	5.737	1772059872.083
1069	900.000	-0.025	900.001	0.038	5.013	1772059872.395
1070	900.000	-0.015	899.998	0.151	0.848	1772059872.714
1071	900.000	-0.010	899.998	0.051	4.978	1772059873.047
1072	900.000	0.011	899.997	0.090	2.833	1772059873.331
1073	900.000	-0.006	900.000	0.058	0.389	1772059873.651
1074	900.000	-0.039	899.997	0.062	4.728	1772059873.939
1075	900.000	-0.024	900.001	0.109	1.409	1772059874.195
1076	900.000	-0.004	900.001	0.082	1.193	1772059874.455
1077	900.000	0.007	900.002	0.058	4.916	1772059874.757
1078	900.000	0.026	900.002	0.103	1.941	1772059875.032
1079	900.000	-0.001	900.001	0.024	5.707	1772059875.339
1080	900.000	0.018	900.001	0.067	4.536	1772059875.642
1081	900.000	-0.011	899.998	0.113	1.257	1772059875.941
1082	900.000	-0.016	899.996	0.032	0.716	1772059876.203
1083	900.000	-0.003	900.000	0.070	4.174	1772059876.450
1084	900.000	0.021	899.999	0.102	1.362	1772059876.720
1085	900.000	-0.019	899.997	0.099	0.510	1772059877.011
1086	900.000	0.020	900.002	0.145	4.811	1772059877.276
1087	900.000	0.014	899.996	0.118	1.441	1772059877.608
1088	900.000	-0.000	900.003	0.042	4.762	1772059877.905
1089	900.000	-0.007	899.997	0.024	6.186	1772059878.181
1090	900.000	-0.027	900.000	0.105	1.253	1772059878.451
1091	900.000	0.015	900.000	0.035	5.219	1772059878.698
1092	900.000	0.005	900.001	0.044	4.614	1772059878.963
1093	900.000	-0.016	899.996	0.113	1.507	1772059879.256
1094	900.000	0.019	900.002	0.045	5.183	1772059879.573
1095	900.000	-0.014	899.998	0.080	6.205	1772059879.903
1096	900.000	0.004	900.001	0.082	0.903	1772059880.198
1097	900.000	0.009	900.000	0.078	4.866	1772059880.534
1098	900.000	0.028	900.003	0.083	0.998	1772059880.803
1099	900.000	0.029	899.998	0.052	1.070	1772059881.082
1100	900.000	0.014	899.996	0.121	3.984	1772059881.329
1101	900.000	-0.001	900.001	0.071	1.199	1772059881.666
1102	900.000	-0.011	899.998	0.068	0.704	1772059881.950
1103	900.000	0.004	900.003	0.089	4.727	1772059882.207
1104	900.000	0.019	900.003	0.076	0.722	1772059882.529
1105	900.000	0.011	900.006	0.080	6.209	1772059882.844
1106	900.000	0.018	900.001	0.065	5.534	1772059883.156
1107	900.000	-0.008	899.998	0.134	1.027	1772059883.440
1108	900.000	0.011	899.996	0.042	4.383	1772059883.710
1109	900.000	-0.010	900.000	0.060	3.437	1772059884.016
1110	900.000	0.019	899.999	0.114	1.307	1772059884.314
1111	900.000	-0.015	899.999	0.095	4.279	1772059884.628
1112	900.000	0.004	900.002	0.077	0.322	1772059884.901
1113	900.000	-0.009	900.000	0.121	0.918	1772059885.189
1114	900.000	-0.008	900.000	0.081	5.891	1772059885.487
1115	900.000	0.007	900.001	0.096	1.494	1772059885.817
1116	900.000	0.049	900.003	0.044	0.032	1772059886.101
1117	900.000	-0.043	900.001	0.087	5.486	1772059886.393
1118	900.000	-0.007	899.999	0.066	0.927	1772059886.710
1119	900.000	-0.014	899.999	0.024	5.036	1772059887.011
1120	900.000	0.000	900.000	0.080	5.531	1772059887.302
1121	900.000	0.025	899.999	0.122	1.135	1772059887.576
1122	900.000	-0.015	900.004	0.043	6.014	1772059887.905
1123	900.000	0.028	900.001	0.009	1.758	1772059888.207
1124	900.000	0.012	900.002	0.107	0.693	1772059888.489
1125	900.000	-0.005	900.004	0.099	4.870	1772059888.773
1126	900.000	0.017	899.996	0.087	0.785	1772059889.082
1127	900.000	0.018	900.000	0.066	0.862	1772059889.377
1128	900.000	-0.000	899.997	0.076	4.326	1772059889.707
1129	900.000	0.027	900.002	0.111	1.070	1772059890.012
1130	900.000	-0.010	900.002	0.121	0.172	1772059890.251
1131	900.000	0.010	900.004	0.086	4.274	1772059890.584
1132	900.000	-0.005	900.000	0.148	1.002	1772059890.905
1133	900.000	0.012	899.998	0.041	5.056	1772059891.210
1134	900.000	-0.027	899.998	0.010	1.517	1772059891.512
1135	900.000	-0.010	900.000	0.114	0.485	1772059891.788
1136	900.000	0.000	900.000	0.093	5.064	1772059892.107
1137	900.000	0.002	899.999	0.072	1.530	1772059892.409
1138	900.000	-0.031	900.001	0.024	5.538	1772059892.705
1139	900.000	0.040	900.007	0.069	3.751	1772059893.029
1140	900.000	-0.003	900.003	0.105	1.503	1772059893.353
1141	900.000	0.010	900.001	0.077	5.441	1772059893.661
1142	900.000	-0.011	900.000	0.040	0.916	1772059893.970
1143	900.000	-0.008	899.998	0.086	0.809	1772059894.268
1144	900.000	-0.013	900.000	0.088	5.375	1772059894.602
1145	900.000	0.014	900.001	0.104	2.000	1772059894.900
1146	900.000	0.036	900.002	0.066	6.139	1772059895.215
1147	900.000	-0.032	900.000	0.096	4.954	1772059895.498
1148	900.000	0.026	899.999	0.125	1.417	1772059895.771
1149	900.000	-0.012	899.999	0.057	5.794	1772059896.087
1150	900.000	0.009	900.001	0.040	4.118	1772059896.383
1151	900.000	0.010	899.999	0.108	0.953	1772059896.690
1152	900.000	0.015	899.999	0.081	0.231	1772059896.956
1153	900.000	-0.001	899.997	0.018	3.560	1772059897.285
1154	900.000	-0.013	899.995	0.087	0.713	1772059897.575
1155	900.000	0.016	900.000	0.056	5.619	1772059897.860
1156	900.000	0.022	900.005	0.047	0.790	1772059898.160
1157	900.000	0.003	899.999	0.091	0.817	1772059898.455
1158	900.000	0.007	899.995	0.080	5.061	1772059898.729
1159	900.000	-0.011	900.000	0.062	1.620	1772059899.075
1160	900.000	0.022	900.002	0.048	0.267	1772059899.341
1161	900.000	-0.006	900.001	0.077	4.704	1772059899.658
1162	900.000	0.015	900.000	0.124	0.495	1772059899.931
1163	900.000	0.009	900.000	0.062	6.085	1772059900.224
1164	900.000	-0.038	899.997	0.047	4.695	1772059900.529
1165	900.000	0.009	899.997	0.089	0.926	1772059900.824
1166	900.000	0.023	900.000	0.075	5.348	1772059901.072
1167	900.000	-0.011	899.995	0.044	4.180	1772059901.343
1168	900.000	-0.004	899.999	0.096	1.101	1772059901.575
1169	900.000	-0.000	900.002	0.093	0.495	1772059901.842
1170	900.000	-0.010	899.995	0.077	5.187	1772059902.100
1171	900.000	0.012	900.005	0.118	0.680	1772059902.373
1172	900.000	0.029	900.001	0.035	6.107	1772059902.658
1173	900.000	-0.018	899.999	0.077	4.802	1772059902.943
1174	900.000	-0.019	900.002	0.117	1.327	1772059903.229
1175	900.000	0.006	899.996	0.048	5.948	1772059903.571
1176	900.000	-0.020	900.003	0.114	4.575	1772059903.855
1177	900.000	0.034	899.997	0.114	1.030	1772059904.120
1178	900.000	-0.008	899.999	0.059	5.262	1772059904.417
1179	900.000	0.004	899.999	0.013	4.309	1772059904.742
1180	900.000	0.008	899.998	0.099	0.857	1772059905.037
1181	900.000	-0.000	900.000	0.130	5.382	1772059905.292
1182	900.000	0.012	899.997	0.017	4.891	1772059905.574
1183	900.000	0.027	899.997	0.124	1.392	1772059905.800
1184	900.000	-0.003	900.000	0.054	4.828	1772059906.093
1185	900.000	-0.028	900.001	0.031	5.782	1772059906.396
1186	900.000	-0.023	899.998	0.070	0.694	1772059906.705
1187	900.000	0.021	899.998	0.068	4.878	1772059907.007
1188	900.000	-0.018	900.000	0.057	1.775	1772059907.323
1189	900.000	-0.021	900.000	0.059	6.265	1772059907.632
1190	900.000	0.030	899.996	0.077	3.829	1772059907.919
1191	900.000	-0.004	900.000	0.179	0.910	1772059908.190
1192	900.000	0.020	900.001	0.068	5.692	1772059908.516
1193	900.000	0.031	899.998	0.084	4.697	1772059908.810
1194	900.000	0.010	900.001	0.095	1.036	1772059909.054
1195	900.000	-0.007	899.999	0.099	0.546	1772059909.329
1196	900.000	0.002	899.999	0.072	4.420	1772059909.634
1197	900.000	0.034	899.999	0.124	1.290	1772059909.950
1198	900.000	0.002	900.002	0.065	5.959	1772059910.257
1199	900.000	-0.016	900.001	0.010	1.655	1772059910.571
1200	900.000	0.027	899.999	0.087	1.125	1772059910.864
1201	900.000	-0.022	900.005	0.053	5.091	1772059911.194
1202	900.000	-0.015	900.001	0.090	1.002	1772059911.511
1203	900.000	-0.018	900.001	0.077	0.490	1772059911.750
1204	900.000	0.001	900.002	0.077	4.499	1772059912.028
1205	900.000	-0.013	900.004	0.058	2.299	1772059912.358
1206	900.000	-0.011	900.000	0.071	0.324	1772059912.661
1207	900.000	0.012	900.002	0.033	4.238	1772059912.959
1208	900.000	0.004	899.998	0.099	0.787	1772059913.241
1209	900.000	0.020	900.000	0.030	0.004	1772059913.545
1210	900.000	-0.021	899.998	0.017	5.828	1772059913.846
1211	900.000	-0.007	900.000	0.103	1.063	1772059914.163
1212	900.000	0.007	900.000	0.079	4.500	1772059914.472
1213	900.000	-0.022	900.001	0.075	1.488	1772059914.811
1214	900.000	-0.010	900.002	0.037	5.739	1772059915.101
1215	900.000	-0.014	900.002	0.114	4.684	1772059915.412
1216	900.000	-0.009	900.000	0.053	1.095	1772059915.718
1217	900.000	0.020	899.997	0.095	5.428	1772059916.015
1218	900.000	0.018	899.999	0.072	4.852	1772059916.266
1219	900.000	-0.013	900.000	0.103	1.286	1772059916.549
1220	900.000	0.035	900.001	0.067	4.778	1772059916.847
1221	900.000	-0.019	900.000	0.071	4.212	1772059917.114
1222	900.000	-0.007	900.003	0.075	1.469	1772059917.431
1223	900.000	0.008	900.001	0.082	5.977	1772059917.733
1224	900.000	-0.048	900.000	0.012	0.647	1772059918.065
1225	900.000	0.015	900.001	0.093	1.031	1772059918.376
1226	900.000	0.041	900.002	0.120	5.571	1772059918.682
1227	900.000	0.024	900.000	0.067	0.577	1772059918.980
1228	900.000	0.015	900.000	0.085	0.639	1772059919.293
1229	900.000	-0.006	900.001	0.100	4.314	1772059919.581
1230	900.000	-0.008	900.004	0.091	1.475	1772059919.878
1231	900.000	-0.009	900.002	0.049	6.034	1772059920.187
1232	900.000	-0.024	900.003	0.059	5.303	1772059920.478
1233	900.000	-0.005	899.999	0.134	1.163	1772059920.748
1234	900.000	-0.049	899.996	0.025	2.757	1772059921.084
1235	900.000	-0.000	899.998	0.034	1.233	1772059921.392
1236	900.000	0.004	900.000	0.130	0.615	1772059921.683
1237	900.000	-0.000	900.000	0.087	5.198	1772059921.994
1238	900.000	0.005	899.997	0.037	1.297	1772059922.311
1239	900.000	0.010	900.002	0.028	0.598	1772059922.609
1240	900.000	-0.045	900.002	0.048	4.829	1772059922.873
1241	900.000	0.022	900.000	0.099	1.301	1772059923.192
1242	900.000	-0.003	900.003	0.026	6.241	1772059923.495
1243	900.000	-0.036	900.004	0.057	4.703	1772059923.787
1244	900.000	-0.021	900.001	0.189	0.803	1772059924.057
1245	900.000	0.016	900.004	0.036	5.001	1772059924.382
1246	900.000	-0.022	900.002	0.033	3.982	1772059924.680
1247	900.000	0.043	899.998	0.049	1.559	1772059924.994
1248	900.000	-0.003	899.999	0.084	5.432	1772059925.316
1249	900.000	-0.032	899.996	0.105	1.220	1772059925.617
1250	900.000	0.018	899.996	0.070	0.497	1772059925.946
1251	900.000	0.024	900.001	0.074	3.910	1772059926.227
1252	900.000	-0.021	899.998	0.121	0.820	1772059926.566
1253	900.000	-0.002	899.995	0.070	5.844	1772059926.876
1254	900.000	-0.003	900.000	0.085	3.865	1772059927.197
1255	900.000	-0.007	900.000	0.085	0.631	1772059927.477
1256	900.000	-0.006	900.001	0.058	5.005	1772059927.750
1257	900.000	-0.018	899.998	0.041	1.907	1772059928.066
1258	900.000	-0.015	899.998	0.026	1.180	1772059928.388
1259	900.000	-0.016	900.000	0.073	5.486	1772059928.691
1260	900.000	0.012	900.002	0.112	1.026	1772059929.003
1261	900.000	0.016	899.998	0.018	0.086	1772059929.258
1262	900.000	-0.013	899.999	0.102	5.417	1772059929.566
1263	900.000	-0.031	899.999	0.093	0.936	1772059929.880
1264	900.000	-0.012	900.002	0.037	5.610	1772059930.193
1265	900.000	0.007	899.999	0.017	5.044	1772059930.516
1266	900.000	0.000	900.001	0.069	0.394	1772059930.796
1267	900.000	-0.019	900.001	0.082	5.245	1772059931.068
1268	900.000	-0.002	900.000	0.007	3.100	1772059931.368
1269	900.000	-0.019	900.000	0.102	1.139	1772059931.626
1270	900.000	0.029	899.999	0.073	5.073	1772059931.874
1271	900.000	0.011	899.995	0.042	3.979	1772059932.210
1272	900.000	0.003	899.996	0.120	0.529	1772059932.533
1273	900.000	0.018	899.999	0.061	5.166	1772059932.828
1274	900.000	-0.071	899.999	0.120	1.163	1772059933.137
1275	900.000	-0.013	900.001	0.102	0.331	1772059933.454
1276	900.000	0.024	900.001	0.050	3.656	1772059933.747
1277	900.000	-0.069	900.002	0.100	1.279	1772059934.089
1278	900.000	0.011	900.002	0.105	4.761	1772059934.394
1279	900.000	-0.054	900.002	0.021	0.122	1772059934.716
1280	900.000	-0.017	900.001	0.065	0.167	1772059934.990
1281	900.000	0.008	899.997	0.107	5.324	1772059935.249
1282	900.000	0.018	900.002	0.035	5.764	1772059935.497
1283	900.000	0.004	900.001	0.070	0.770	1772059935.848
1284	900.000	0.017	899.998	0.064	5.336	1772059936.146
1285	900.000	0.017	900.002	0.057	1.563	1772059936.448
1286	900.000	0.030	899.999	0.087	6.154	1772059936.718
1287	900.000	0.007	899.995	0.109	5.283	1772059937.013
1288	900.000	0.031	900.001	0.095	1.260	1772059937.326
1289	900.000	-0.012	900.002	0.066	5.897	1772059937.657
1290	900.000	0.032	899.998	0.057	4.895	1772059937.921
1291	900.000	0.020	899.999	0.138	0.612	1772059938.193
1292	900.000	-0.031	900.000	0.019	0.345	1772059938.481
1293	900.000	0.022	900.000	0.075	4.719	1772059938.755
1294	900.000	-0.058	900.000	0.104	0.576	1772059939.073
1295	900.000	-0.007	900.000	0.042	5.050	1772059939.393
1296	900.000	-0.025	900.000	0.008	5.852	1772059939.700
1297	900.000	-0.058	899.998	0.097	0.444	1772059940.011
1298	900.000	0.005	900.006	0.090	5.120	1772059940.309
1299	900.000	0.030	899.998	0.088	1.538	1772059940.568
1300	900.000	0.002	899.997	0.041	0.079	1772059940.887
1301	900.000	0.041	899.998	0.062	4.914	1772059941.188
1302	900.000	0.013	900.000	0.056	1.907	1772059941.438
1303	900.000	-0.005	899.999	0.038	0.398	1772059941.748
1304	900.000	0.020	900.001	0.084	4.769	1772059942.016
1305	900.000	0.019	899.997	0.090	1.295	1772059942.295
1306	900.000	0.078	900.003	0.020	2.014	1772059942.579
1307	900.000	0.030	900.000	0.104	4.714	1772059942.886
1308	900.000	0.009	899.998	0.142	0.882	1772059943.194
1309	900.000	0.006	899.997	0.044	5.575	1772059943.526
1310	900.000	0.004	900.001	0.019	2.969	1772059943.811
1311	900.000	0.057	900.002	0.187	0.866	1772059944.129
1312	900.000	-0.019	900.002	0.057	5.421	1772059944.430
1313	900.000	-0.052	900.001	0.039	1.654	1772059944.735
1314	900.000	0.014	899.999	0.113	0.661	1772059945.008
1315	900.000	-0.002	899.999	0.084	3.994	1772059945.250
1316	900.000	0.036	900.004	0.071	0.460	1772059945.575
1317	900.000	-0.020	900.001	0.047	5.779	1772059945.879
1318	900.000	0.009	899.998	0.041	5.326	1772059946.219
1319	900.000	0.000	899.997	0.102	0.841	1772059946.502
1320	900.000	-0.020	900.001	0.074	6.157	1772059946.824
1321	900.000	0.006	899.999	0.053	4.211	1772059947.133
1322	900.000	-0.012	899.999	0.094	0.728	1772059947.438
1323	900.000	-0.006	899.999	0.085	5.096	1772059947.685
1324	900.000	0.001	899.999	0.032	0.438	1772059948.017
1325	900.000	0.001	900.002	0.105	0.573	1772059948.303
1326	900.000	-0.023	899.999	0.033	5.822	1772059948.559
1327	900.000	-0.007	899.999	0.042	0.826	1772059948.828
1328	900.000	0.008	900.000	0.119	0.692	1772059949.134
1329	900.000	0.053	900.002	0.051	4.954	1772059949.393
1330	900.000	-0.022	899.998	0.035	1.449	1772059949.718
1331	900.000	0.005	899.999	0.074	0.637	1772059950.009
1332	900.000	-0.008	900.001	0.104	5.220	1772059950.326
1333	900.000	0.019	900.004	0.097	0.622	1772059950.642
1334	900.000	0.000	900.000	0.003	0.036	1772059950.930
1335	900.000	0.050	900.003	0.082	4.541	1772059951.168
1336	900.000	0.031	899.999	0.086	1.281	1772059951.471
1337	900.000	0.037	899.998	0.060	5.061	1772059951.751
1338	900.000	0.009	900.001	0.043	5.289	1772059952.066
1339	900.000	-0.031	899.998	0.146	1.052	1772059952.383
1340	900.000	-0.006	899.999	0.027	3.161	1772059952.654
1341	900.000	0.008	900.000	0.066	0.044	1772059952.945
1342	900.000	-0.014	899.999	0.070	0.587	1772059953.240
1343	900.000	-0.047	900.001	0.017	5.407	1772059953.507
1344	900.000	-0.001	900.000	0.048	3.467	1772059953.758
1345	900.000	-0.027	899.994	0.077	0.585	1772059954.019
1346	900.000	0.008	899.999	0.054	4.862	1772059954.314
1347	900.000	0.013	900.000	0.043	2.885	1772059954.655
1348	900.000	-0.005	900.004	0.124	0.176	1772059954.962
1349	900.000	0.002	900.004	0.125	4.170	1772059955.260
1350	900.000	-0.029	899.999	0.034	2.226	1772059955.545
1351	900.000	0.032	900.001	0.033	0.485	1772059955.830
1352	900.000	0.006	900.000	0.047	5.066	1772059956.141
1353	900.000	-0.001	900.003	0.066	1.892	1772059956.423
1354	900.000	0.024	900.000	0.055	5.679	1772059956.705
1355	900.000	0.002	900.000	0.027	5.070	1772059957.010
1356	900.000	-0.024	900.001	0.084	1.562	1772059957.295
1357	900.000	0.026	899.999	0.068	5.736	1772059957.634
1358	900.000	0.006	900.000	0.056	3.504	1772059957.952
1359	900.000	0.007	900.003	0.054	0.963	1772059958.262
1360	900.000	-0.023	899.999	0.060	5.157	1772059958.590
1361	900.000	0.022	900.002	0.089	2.035	1772059958.883
1362	900.000	-0.022	900.000	0.060	6.140	1772059959.192
1363	900.000	0.023	900.000	0.082	3.963	1772059959.503
1364	900.000	0.015	899.999	0.075	0.416	1772059959.765
1365	900.000	-0.013	899.998	0.043	0.083	1772059960.064
1366	900.000	-0.031	900.000	0.046	3.786	1772059960.394
1367	900.000	-0.006	899.998	0.163	0.705	1772059960.701
1368	900.000	-0.024	899.996	0.055	5.818	1772059961.029
1369	900.000	0.012	899.999	0.069	2.115	1772059961.306
1370	900.000	0.006	900.001	0.073	0.462	1772059961.618
1371	900.000	0.001	899.999	0.046	5.681	1772059961.897
1372	900.000	-0.026	899.998	0.089	1.732	1772059962.225
1373	900.000	-0.025	900.002	0.059	5.671	1772059962.552
1374	900.000	0.012	900.002	0.064	4.645	1772059962.834
1375	900.000	-0.024	900.000	0.112	1.332	1772059963.108
1376	900.000	-0.004	899.997	0.021	5.544	1772059963.416
1377	900.000	-0.002	899.998	0.030	4.104	1772059963.717
1378	900.000	0.021	900.000	0.089	1.592	1772059964.024
1379	900.000	0.016	899.998	0.069	4.963	1772059964.348
1380	900.000	-0.012	899.998	0.024	1.422	1772059964.637
1381	900.000	-0.000	899.999	0.139	0.586	1772059964.901
1382	900.000	-0.014	900.000	0.056	5.309	1772059965.211
1383	900.000	-0.003	899.997	0.074	1.364	1772059965.527
1384	900.000	0.006	899.999	0.118	0.102	1772059965.843
1385	900.000	-0.030	900.000	0.049	4.550	1772059966.131
1386	900.000	0.013	900.006	0.096	1.241	1772059966.416
1387	900.000	0.018	900.004	0.076	5.580	1772059966.715
1388	900.000	0.012	900.000	0.061	4.059	1772059967.010
1389	900.000	0.036	899.999	0.134	0.700	1772059967.283
1390	900.000	0.020	900.001	0.018	4.565	1772059967.571
1391	900.000	-0.026	900.000	0.129	3.920	1772059967.847
1392	900.000	-0.015	899.993	0.038	1.306	1772059968.155
1393	900.000	0.002	899.998	0.042	5.620	1772059968.442
1394	900.000	-0.007	900.002	0.046	3.838	1772059968.708
1395	900.000	0.017	900.000	0.060	1.644	1772059968.953
1396	900.000	-0.015	900.003	0.096	6.097	1772059969.191
1397	900.000	-0.021	900.000	0.049	4.305	1772059969.460
1398	900.000	0.008	900.001	0.054	0.679	1772059969.789
1399	900.000	0.001	899.997	0.035	5.324	1772059970.078
1400	900.000	-0.005	899.999	0.089	4.468	1772059970.325
1401	900.000	0.005	900.002	0.178	0.649	1772059970.615
1402	900.000	0.025	900.002	0.014	1.331	1772059970.884
1403	900.000	0.020	899.999	0.061	4.064	1772059971.210
1404	900.000	0.008	900.001	0.086	0.911	1772059971.527
1405	900.000	0.014	900.001	0.058	4.708	1772059971.846
1406	900.000	0.016	899.998	0.061	1.028	1772059972.153
1407	900.000	-0.000	900.003	0.079	0.220	1772059972.453
1408	900.000	0.020	900.001	0.068	4.520	1772059972.772
1409	900.000	-0.022	900.001	0.137	0.563	1772059973.082
1410	900.000	-0.010	899.998	0.045	5.987	1772059973.360
1411	900.000	0.013	900.004	0.049	5.375	1772059973.646
1412	900.000	-0.031	900.003	0.122	1.235	1772059973.925
1413	900.000	0.014	900.000	0.014	0.773	1772059974.214
1414	900.000	0.023	899.996	0.019	4.101	1772059974.542
1415	900.000	0.023	900.004	0.097	1.370	1772059974.847
1416	900.000	-0.020	899.998	0.018	3.705	1772059975.140
1417	900.000	0.023	899.999	0.062	0.110	1772059975.400
1418	900.000	0.014	899.999	0.094	0.386	1772059975.731
1419	900.000	-0.002	899.998	0.053	5.558	1772059976.033
1420	900.000	-0.015	899.998	0.055	0.487	1772059976.332
1421	900.000	-0.010	900.003	0.105	0.355	1772059976.586
1422	900.000	0.029	900.004	0.056	4.752	1772059976.925
1423	900.000	0.007	899.999	0.091	0.999	1772059977.226
1424	900.000	0.002	900.001	0.042	0.246	1772059977.507
1425	900.000	-0.028	900.000	0.076	4.427	1772059977.788
1426	900.000	-0.001	900.002	0.094	0.722	1772059978.080
1427	900.000	-0.004	900.002	0.043	0.253	1772059978.339
1428	900.000	0.022	900.002	0.077	4.886	1772059978.647
1429	900.000	0.010	899.999	0.118	1.095	1772059978.963
1430	900.000	0.013	899.999	0.081	5.564	1772059979.269
1431	900.000	-0.017	900.001	0.065	0.623	1772059979.582
1432	900.000	-0.042	899.999	0.078	6.164	1772059979.902
1433	900.000	-0.031	900.001	0.093	5.030	1772059980.184
1434	900.000	0.004	899.999	0.082	2.533	1772059980.458
1435	900.000	0.004	900.002	0.095	6.055	1772059980.714
1436	900.000	-0.009	899.998	0.040	4.558	1772059981.024
1437	900.000	-0.012	900.000	0.110	1.647	1772059981.331
1438	900.000	0.028	900.003	0.050	5.188	1772059981.638
1439	900.000	0.008	900.000	0.060	4.087	1772059981.884
1440	900.000	-0.024	900.006	0.046	0.204	1772059982.153
1441	900.000	-0.008	900.001	0.096	0.129	1772059982.459
1442	900.000	0.020	900.001	0.041	5.443	1772059982.762
1443	900.000	-0.003	900.003	0.068	0.440	1772059983.095
1444	900.000	0.006	900.003	0.053	3.594	1772059983.384
1445	900.000	0.000	900.003	0.027	3.114	1772059983.631
1446	900.000	0.002	899.999	0.063	0.950	1772059983.895
1447	900.000	-0.005	900.003	0.058	6.022	1772059984.146
1448	900.000	0.014	899.998	0.014	4.729	1772059984.456
1449	900.000	-0.000	900.004	0.101	1.717	1772059984.721
1450	900.000	-0.027	900.002	0.039	5.572	1772059985.028
1451	900.000	0.032	899.999	0.017	3.808	1772059985.340
1452	900.000	-0.042	900.001	0.109	0.764	1772059985.661
1453	900.000	-0.039	900.000	0.019	3.324	1772059985.956
1454	900.000	0.003	899.999	0.052	2.042	1772059986.264
1455	900.000	0.021	899.997	0.094	5.912	1772059986.592
1456	900.000	-0.022	900.002	0.076	3.998	1772059986.894
1457	900.000	0.038	900.004	0.068	0.689	1772059987.152
1458	900.000	-0.032	899.997	0.027	4.044	1772059987.410
1459	900.000	-0.014	899.997	0.058	4.606	1772059987.679
1460	900.000	-0.004	900.002	0.051	1.787	1772059987.974
1461	900.000	0.030	899.998	0.077	0.270	1772059988.293
1462	900.000	0.014	899.999	0.071	5.382	1772059988.588
1463	900.000	0.001	899.997	0.084	1.841	1772059988.874
1464	900.000	0.020	900.004	0.056	5.907	1772059989.161
1465	900.000	-0.010	899.998	0.053	6.219	1772059989.462
1466	900.000	0.033	899.998	0.052	2.415	1772059989.714
1467	900.000	-0.011	900.001	0.078	4.947	1772059990.039
1468	900.000	-0.002	900.001	0.072	2.070	1772059990.323
1469	900.000	-0.000	900.004	0.090	0.764	1772059990.588
1470	900.000	-0.005	900.000	0.051	5.566	1772059990.891
1471	900.000	-0.017	900.001	0.036	1.199	1772059991.197
1472	900.000	-0.005	899.997	0.089	0.794	1772059991.493
1473	900.000	-0.017	899.997	0.100	4.539	1772059991.771
1474	900.000	-0.005	899.998	0.077	2.040	1772059992.075
1475	900.000	-0.031	899.997	0.125	0.627	1772059992.368
1476	900.000	0.005	900.001	0.084	5.692	1772059992.632
1477	900.000	-0.022	900.003	0.073	2.368	1772059992.938
1478	900.000	-0.029	900.000	0.012	5.811	1772059993.234
1479	900.000	-0.023	900.005	0.045	5.112	1772059993.511
1480	900.000	-0.036	900.001	0.053	1.831	1772059993.815
1481	900.000	-0.013	900.000	0.045	6.032	1772059994.124
1482	900.000	-0.001	899.996	0.040	4.824	1772059994.431
1483	900.000	-0.021	900.001	0.102	2.107	1772059994.694
1484	900.000	0.016	899.998	0.033	5.122	1772059994.999
1485	900.000	0.010	899.999	0.042	3.159	1772059995.314
1486	900.000	0.000	900.001	0.117	0.786	1772059995.635
1487	900.000	-0.011	900.003	0.033	4.861	1772059995.866
1488	900.000	0.026	899.998	0.026	2.387	1772059996.138
1489	900.000	-0.009	899.997	0.042	1.087	1772059996.446
1490	900.000	-0.010	900.001	0.069	4.065	1772059996.751
1491	900.000	-0.001	899.999	0.086	0.483	1772059997.076
1492	900.000	-0.017	900.000	0.028	1.136	1772059997.384
1493	900.000	0.027	900.001	0.076	3.772	1772059997.692
1494	900.000	-0.034	899.999	0.113	0.831	1772059998.027
1495	900.000	0.003	900.002	0.077	5.642	1772059998.299
1496	900.000	0.018	899.999	0.019	3.405	1772059998.583
1497	900.000	-0.006	899.996	0.102	1.055	1772059998.862
1498	900.000	-0.009	900.001	0.070	5.438	1772059999.134
1499	900.000	-0.003	899.997	0.036	4.494	1772059999.453
1500	900.000	-0.025	900.003	0.115	0.730	1772059999.739
1501	900.000	-0.003	900.003	0.058	4.875	1772060000.020
1502	900.000	0.007	900.001	0.012	1.470	1772060000.355
1503	900.000	0.019	900.000	0.071	1.835	1772060000.653
1504	900.000	-0.008	900.000	0.064	5.342	1772060000.938
1505	900.000	-0.012	899.999	0.054	1.963	1772060001.194
1506	900.000	0.011	899.998	0.036	0.360	1772060001.499
1507	900.000	0.001	900.001	0.035	4.727	1772060001.758
1508	900.000	0.023	900.005	0.051	1.602	1772060002.098
1509	900.000	0.006	900.002	0.051	0.549	1772060002.365
1510	900.000	-0.002	900.001	0.081	4.431	1772060002.628
1511	900.000	-0.022	899.998	0.057	2.183	1772060002.955
1512	900.000	-0.004	899.997	0.042	5.267	1772060003.259
1513	900.000	-0.009	900.000	0.039	2.632	1772060003.550
1514	900.000	-0.006	900.001	0.055	0.633	1772060003.904
1515	900.000	0.011	900.001	0.071	4.507	1772060004.212
1516	900.000	-0.025	900.001	0.037	2.136	1772060004.513
1517	900.000	0.009	899.997	0.065	1.123	1772060004.764
1518	900.000	0.008	900.003	0.090	4.343	1772060005.029
1519	900.000	0.001	900.000	0.120	0.994	1772060005.326
1520	900.000	-0.019	900.001	0.028	2.340	1772060005.672
1521	900.000	-0.029	900.000	0.074	5.444	1772060005.964
1522	900.000	-0.007	899.999	0.109	1.329	1772060006.295
1523	900.000	0.009	900.001	0.058	5.044	1772060006.576
1524	900.000	0.014	900.001	0.013	2.643	1772060006.899
1525	900.000	-0.001	899.998	0.124	0.672	1772060007.203
1526	900.000	-0.008	900.003	0.057	4.790	1772060007.444
1527	900.000	-0.014	900.001	0.035	2.486	1772060007.701
1528	900.000	0.011	900.000	0.119	1.265	1772060007.932
1529	900.000	0.013	900.001	0.077	6.105	1772060008.223
1530	900.000	0.008	900.000	0.031	3.927	1772060008.527
1531	900.000	-0.018	900.002	0.088	1.003	1772060008.842
1532	900.000	-0.011	900.002	0.071	4.337	1772060009.147
1533	900.000	-0.001	899.999	0.076	0.822	1772060009.465
1534	900.000	0.006	899.997	0.076	0.654	1772060009.772
1535	900.000	-0.010	899.998	0.066	5.078	1772060010.081
1536	900.000	-0.004	899.999	0.092	1.201	1772060010.404
1537	900.000	0.021	900.002	0.066	0.611	1772060010.687
1538	900.000	-0.007	899.997	0.014	3.432	1772060010.951
1539	900.000	-0.001	900.004	0.158	0.894	1772060011.208
1540	900.000	0.002	899.994	0.038	5.432	1772060011.527
1541	900.000	0.042	899.998	0.015	2.863	1772060011.828
1542	900.000	-0.005	900.002	0.138	0.989	1772060012.149
1543	900.000	0.049	900.000	0.056	5.813	1772060012.413
1544	900.000	0.022	900.003	0.083	3.703	1772060012.737
1545	900.000	-0.024	899.998	0.105	0.636	1772060013.027
1546	900.000	-0.001	899.999	0.044	5.052	1772060013.341
1547	900.000	0.006	900.004	0.062	0.783	1772060013.653
1548	900.000	0.013	900.001	0.025	0.719	1772060013.958
1549	900.000	0.019	900.001	0.027	4.130	1772060014.274
1550	900.000	0.019	900.001	0.135	1.158	1772060014.557
1551	900.000	-0.018	900.006	0.027	4.733	1772060014.837
1552	900.000	-0.005	900.003	0.049	3.313	1772060015.154
1553	900.000	0.034	900.000	0.113	1.121	1772060015.470
1554	900.000	0.023	899.994	0.068	5.296	1772060015.774
1555	900.000	0.006	899.997	0.042	0.895	1772060016.099
1556	900.000	-0.018	900.003	0.055	1.041	1772060016.391
1557	900.000	-0.005	899.994	0.073	4.722	1772060016.702
1558	900.000	-0.008	900.000	0.083	1.222	1772060016.981
1559	900.000	0.014	899.999	0.037	5.040	1772060017.276
1560	900.000	-0.001	900.001	0.129	5.287	1772060017.521
1561	900.000	-0.007	900.000	0.122	0.749	1772060017.862
1562	900.000	0.003	899.996	0.096	5.508	1772060018.157
1563	900.000	0.024	900.004	0.017	3.957	1772060018.468
1564	900.000	0.001	900.000	0.136	0.703	1772060018.778
1565	900.000	-0.015	900.001	0.087	4.894	1772060019.081
1566	900.000	-0.010	899.999	0.064	2.288	1772060019.404
1567	900.000	0.008	900.000	0.051	1.464	1772060019.695
1568	900.000	0.009	899.998	0.043	5.231	1772060019.960
1569	900.000	0.005	900.001	0.086	1.555	1772060020.277
1570	900.000	-0.027	899.999	0.053	5.826	1772060020.589
1571	900.000	-0.008	900.000	0.065	4.567	1772060020.895
1572	900.000	0.005	899.999	0.061	1.525	1772060021.210
1573	900.000	0.032	900.000	0.044	4.135	1772060021.493
1574	900.000	-0.015	899.998	0.045	0.400	1772060021.810
1575	900.000	-0.009	900.003	0.118	0.777	1772060022.135
1576	900.000	0.028	900.002	0.090	4.232	1772060022.405
1577	900.000	-0.023	900.004	0.049	1.603	1772060022.683
1578	900.000	-0.003	899.998	0.078	0.925	1772060023.002
1579	900.000	-0.025	899.999	0.097	4.746	1772060023.321
1580	900.000	-0.020	900.000	0.122	0.586	1772060023.589
1581	900.000	0.029	899.997	0.013	0.179	1772060023.889
1582	900.000	-0.022	899.999	0.067	4.422	1772060024.188
1583	900.000	0.023	900.001	0.077	1.281	1772060024.478
1584	900.000	0.014	900.002	0.032	5.963	1772060024.819
1585	900.000	-0.029	900.004	0.026	4.837	1772060025.122
1586	900.000	0.009	900.000	0.111	1.165	1772060025.416
1587	900.000	-0.026	900.003	0.083	3.981	1772060025.668
1588	900.000	-0.014	900.001	0.059	0.138	1772060025.939
1589	900.000	-0.017	900.001	0.132	0.738	1772060026.227
1590	900.000	-0.013	899.999	0.072	3.835	1772060026.526
1591	900.000	-0.002	900.000	0.059	6.136	1772060026.811
1592	900.000	-0.024	899.999	0.057	1.651	1772060027.115
1593	900.000	-0.003	900.005	0.081	5.491	1772060027.445
1594	900.000	-0.020	899.998	0.108	0.784	1772060027.765
1595	900.000	0.006	899.996	0.050	0.053	1772060028.070
1596	900.000	-0.012	900.001	0.096	4.725	1772060028.375
1597	900.000	-0.004	899.999	0.141	1.288	1772060028.669
1598	900.000	-0.014	900.000	0.075	4.381	1772060028.942
1599	900.000	-0.035	900.000	0.062	5.480	1772060029.246
1600	900.000	0.021	900.002	0.139	0.808	1772060029.573
1601	900.000	-0.010	900.000	0.070	4.887	1772060029.860
1602	900.000	-0.013	899.999	0.033	3.100	1772060030.109
1603	900.000	-0.007	900.001	0.116	0.856	1772060030.422
1604	900.000	-0.024	900.002	0.064	4.751	1772060030.738
1605	900.000	-0.030	900.001	0.112	0.705	1772060031.010
1606	900.000	0.020	900.003	0.133	0.726	1772060031.293
1607	900.000	0.003	900.003	0.076	5.215	1772060031.550
1608	900.000	-0.007	899.998	0.060	3.522	1772060031.801
1609	900.000	-0.014	900.000	0.172	0.619	1772060032.060
1610	900.000	0.020	900.000	0.033	4.585	1772060032.370
1611	900.000	0.015	900.000	0.014	3.296	1772060032.666
1612	900.000	-0.006	900.001	0.064	1.242	1772060032.939
1613	900.000	-0.006	900.000	0.079	4.695	1772060033.244
1614	900.000	-0.003	899.998	0.029	2.085	1772060033.540
1615	900.000	-0.027	900.000	0.029	0.717	1772060033.868
1616	900.000	-0.022	900.001	0.063	5.095	1772060034.181
1617	900.000	0.014	899.999	0.071	0.831	1772060034.495
1618	900.000	0.001	900.003	0.065	4.613	1772060034.746
1619	900.000	0.014	900.003	0.068	4.545	1772060035.009
1620	900.000	-0.017	899.998	0.093	0.783	1772060035.270
1621	900.000	0.035	900.002	0.020	1.263	1772060035.573
1622	900.000	0.033	900.002	0.099	4.366	1772060035.876
1623	900.000	-0.005	899.998	0.125	0.820	1772060036.184
1624	900.000	0.003	900.000	0.050	5.176	1772060036.492
1625	900.000	0.025	899.999	0.098	3.507	1772060036.760
1626	900.000	0.001	899.997	0.120	0.793	1772060037.040
1627	900.000	0.014	900.001	0.022	5.489	1772060037.305
1628	900.000	-0.030	900.001	0.059	4.471	1772060037.552
1629	900.000	0.003	900.000	0.093	1.683	1772060037.812
1630	900.000	0.005	899.999	0.055	4.536	1772060038.067
1631	900.000	-0.003	900.000	0.026	4.379	1772060038.337
1632	900.000	-0.015	900.001	0.189	0.947	1772060038.618
1633	900.000	-0.009	899.993	0.057	5.636	1772060038.943
1634	900.000	-0.021	899.998	0.033	4.699	1772060039.263
1635	900.000	0.004	899.996	0.106	0.880	1772060039.564
1636	900.000	0.022	900.002	0.089	4.844	1772060039.824
1637	900.000	-0.030	900.000	0.031	1.376	1772060040.133
1638	900.000	-0.002	900.001	0.113	1.309	1772060040.456
1639	900.000	-0.011	900.001	0.051	4.753	1772060040.748
1640	900.000	-0.005	900.000	0.067	1.372	1772060041.066
1641	900.000	-0.009	900.001	0.003	4.037	1772060041.399
1642	900.000	-0.002	900.000	0.082	4.414	1772060041.675
1643	900.000	-0.004	899.998	0.112	1.041	1772060041.965
1644	900.000	0.007	899.998	0.047	5.748	1772060042.267
1645	900.000	0.017	900.000	0.068	4.756	1772060042.523
1646	900.000	0.018	900.003	0.101	0.638	1772060042.820
1647	900.000	-0.002	900.000	0.063	5.992	1772060043.170
1648	900.000	0.026	900.001	0.003	5.472	1772060043.471
1649	900.000	-0.008	900.002	0.132	0.768	1772060043.765
1650	900.000	-0.035	900.001	0.062	4.192	1772060044.023
1651	900.000	0.031	899.995	0.085	6.230	1772060044.339
1652	900.000	-0.003	899.998	0.101	0.852	1772060044.624
1653	900.000	-0.005	899.998	0.092	4.124	1772060044.879
1654	900.000	-0.004	900.000	0.037	0.469	1772060045.152
1655	900.000	0.003	900.002	0.085	1.069	1772060045.460
1656	900.000	0.030	900.001	0.042	5.964	1772060045.782
1657	900.000	0.001	899.999	0.095	0.612	1772060046.083
1658	900.000	0.005	900.005	0.062	6.105	1772060046.327
1659	900.000	-0.008	900.002	0.100	3.315	1772060046.636
1660	900.000	-0.017	900.001	0.063	0.808	1772060046.897
1661	900.000	-0.003	900.003	0.066	0.119	1772060047.214
1662	900.000	-0.007	900.003	0.035	3.550	1772060047.522
1663	900.000	0.028	900.000	0.106	1.136	1772060047.821
1664	900.000	0.004	900.000	0.068	4.836	1772060048.072
1665	900.000	0.024	900.002	0.033	3.160	1772060048.396
1666	900.000	0.008	900.001	0.059	0.732	1772060048.667
1667	900.000	-0.007	900.000	0.083	5.225	1772060048.973
1668	900.000	-0.023	900.003	0.024	2.493	1772060049.281
1669	900.000	0.021	899.999	0.090	0.718	1772060049.593
1670	900.000	0.001	900.000	0.058	4.626	1772060049.900
1671	900.000	-0.017	900.000	0.081	0.908	1772060050.227
1672	900.000	-0.027	899.999	0.056	5.833	1772060050.492
1673	900.000	-0.017	900.001	0.062	3.661	1772060050.779
1674	900.000	0.001	899.999	0.109	0.531	1772060051.087
1675	900.000	0.000	900.000	0.032	0.594	1772060051.383
1676	900.000	0.015	899.999	0.040	0.473	1772060051.699
1677	900.000	0.023	899.997	0.127	0.831	1772060052.018
1678	900.000	0.023	900.000	0.047	5.898	1772060052.329
1679	900.000	0.024	900.002	0.020	3.705	1772060052.618
1680	900.000	-0.000	899.999	0.117	0.305	1772060052.923
1681	900.000	0.030	899.999	0.052	5.335	1772060053.225
1682	900.000	-0.014	900.003	0.063	1.499	1772060053.560
1683	900.000	-0.021	899.999	0.078	0.189	1772060053.861
1684	900.000	0.003	900.002	0.091	5.115	1772060054.148
1685	900.000	-0.028	900.001	0.133	0.699	1772060054.430
1686	900.000	-0.009	899.998	0.079	5.343	1772060054.738
1687	900.000	-0.010	900.002	0.030	4.881	1772060055.016
1688	900.000	-0.046	900.002	0.085	1.128	1772060055.279
1689	900.000	-0.002	900.004	0.078	0.129	1772060055.533
1690	900.000	0.008	900.000	0.046	3.582	1772060055.811
1691	900.000	-0.015	899.999	0.096	1.092	1772060056.093
1692	900.000	-0.008	900.000	0.069	0.418	1772060056.411
1693	900.000	-0.019	899.999	0.046	4.873	1772060056.736
1694	900.000	-0.012	899.999	0.098	0.382	1772060057.031
1695	900.000	-0.026	900.000	0.089	4.681	1772060057.317
1696	900.000	0.008	900.001	0.034	2.567	1772060057.596
1697	900.000	0.008	900.001	0.090	0.841	1772060057.910
1698	900.000	0.007	900.002	0.068	5.625	1772060058.199
1699	900.000	0.028	900.002	0.014	2.402	1772060058.483
1700	900.000	-0.010	900.000	0.114	0.743	1772060058.802
1701	900.000	-0.007	900.001	0.057	4.567	1772060059.108
1702	900.000	0.009	899.999	0.064	1.510	1772060059.399
1703	900.000	0.005	900.001	0.097	6.261	1772060059.681
1704	900.000	-0.022	899.996	0.114	4.762	1772060059.972
1705	900.000	-0.018	899.996	0.100	1.258	1772060060.271
1706	900.000	-0.001	899.996	0.050	5.030	1772060060.587
1707	900.000	-0.004	900.001	0.059	3.208	1772060060.840
1708	900.000	0.017	900.002	0.150	1.523	1772060061.115
1709	900.000	-0.005	900.000	0.056	0.598	1772060061.437
1710	900.000	0.015	900.000	0.071	3.745	1772060061.724
1711	900.000	-0.007	900.000	0.111	1.091	1772060061.990
1712	900.000	-0.033	899.999	0.019	5.716	1772060062.305
1713	900.000	0.013	899.998	0.049	4.418	1772060062.634
1714	900.000	0.004	900.001	0.042	1.888	1772060062.933
1715	900.000	0.014	900.003	0.058	4.888	1772060063.240
1716	900.000	-0.004	899.996	0.052	2.329	1772060063.530
1717	900.000	-0.005	899.996	0.179	1.361	1772060063.773
1718	900.000	0.033	899.998	0.033	3.549	1772060064.046
1719	900.000	-0.008	899.999	0.027	4.358	1772060064.351
1720	900.000	0.024	900.001	0.049	1.372	1772060064.677
1721	900.000	-0.022	900.000	0.058	3.768	1772060064.972
1722	900.000	0.013	900.002	0.078	0.651	1772060065.280
1723	900.000	0.016	899.998	0.022	0.477	1772060065.556
1724	900.000	0.013	899.998	0.016	3.721	1772060065.839
1725	900.000	0.010	899.996	0.099	0.547	1772060066.117
1726	900.000	0.015	900.000	0.108	0.012	1772060066.417
1727	900.000	0.042	900.004	0.038	5.139	1772060066.736
1728	900.000	-0.006	899.998	0.081	0.812	1772060067.061
1729	900.000	0.017	900.000	0.040	5.594	1772060067.362
1730	900.000	-0.011	899.998	0.013	4.383	1772060067.663
1731	900.000	0.004	899.997	0.087	0.530	1772060067.945
1732	900.000	0.001	899.999	0.072	4.948	1772060068.223
1733	900.000	-0.001	900.000	0.027	3.066	1772060068.551
1734	900.000	0.003	900.005	0.159	0.513	1772060068.833
1735	900.000	-0.002	900.001	0.053	3.937	1772060069.117
1736	900.000	0.000	900.002	0.059	2.081	1772060069.420
1737	900.000	-0.022	899.997	0.074	0.438	1772060069.713
1738	900.000	-0.037	900.001	0.080	4.707	1772060069.968
1739	900.000	-0.010	899.999	0.062	0.942	1772060070.217
1740	900.000	-0.023	899.996	0.059	6.274	1772060070.493
1741	900.000	-0.038	899.999	0.083	4.343	1772060070.768
1742	900.000	-0.014	899.997	0.076	0.852	1772060071.035
1743	900.000	0.005	900.004	0.106	0.431	1772060071.281
1744	900.000	0.020	899.997	0.044	4.092	1772060071.602
1745	900.000	-0.037	900.004	0.086	0.913	1772060071.931
1746	900.000	-0.023	899.997	0.052	0.459	1772060072.230
1747	900.000	0.025	900.000	0.065	4.465	1772060072.526
1748	900.000	0.017	899.995	0.074	1.499	1772060072.788
1749	900.000	0.002	900.001	0.048	5.818	1772060073.121
1750	900.000	0.010	900.002	0.040	4.018	1772060073.426
1751	900.000	0.028	900.000	0.063	0.781	1772060073.715
1752	900.000	0.031	900.004	0.044	5.837	1772060073.965
1753	900.000	0.026	899.997	0.032	4.686	1772060074.215
1754	900.000	0.013	900.000	0.047	1.954	1772060074.480
1755	900.000	-0.032	899.997	0.030	2.895	1772060074.769
1756	900.000	-0.026	899.998	0.062	4.537	1772060075.046
1757	900.000	-0.006	900.003	0.106	0.781	1772060075.371
1758	900.000	0.025	900.000	0.049	4.910	1772060075.651
1759	900.000	0.008	900.001	0.070	6.118	1772060075.961
1760	900.000	-0.016	900.004	0.155	0.910	1772060076.232
1761	900.000	-0.022	899.997	0.038	4.608	1772060076.546
1762	900.000	0.004	900.001	0.035	1.636	1772060076.846
1763	900.000	0.045	900.002	0.071	6.280	1772060077.182
1764	900.000	-0.020	900.001	0.086	4.091	1772060077.475
1765	900.000	0.017	900.001	0.061	1.158	1772060077.788
1766	900.000	-0.014	899.998	0.075	0.372	1772060078.083
1767	900.000	-0.001	900.002	0.097	4.490	1772060078.368
1768	900.000	-0.021	899.998	0.095	1.030	1772060078.665
1769	900.000	-0.024	899.998	0.087	3.547	1772060078.978
1770	900.000	0.004	900.003	0.000	2.345	1772060079.277
1771	900.000	-0.004	900.001	0.100	0.882	1772060079.574
1772	900.000	-0.025	900.000	0.032	4.095	1772060079.851
1773	900.000	-0.012	900.003	0.087	1.638	1772060080.166
1774	900.000	-0.017	900.002	0.087	0.344	1772060080.472
1775	900.000	-0.036	900.003	0.101	4.500	1772060080.719
1776	900.000	-0.012	900.000	0.039	2.358	1772060081.051
1777	900.000	0.025	899.997	0.086	0.686	1772060081.351
1778	900.000	-0.004	900.001	0.044	5.343	1772060081.660
1779	900.000	-0.021	899.999	0.119	0.753	1772060081.976
1780	900.000	0.035	899.999	0.027	0.119	1772060082.273
1781	900.000	-0.010	899.997	0.057	5.640	1772060082.541
1782	900.000	0.012	900.000	0.114	0.803	1772060082.797
1783	900.000	0.011	899.997	0.107	6.102	1772060083.102
1784	900.000	-0.032	900.004	0.020	4.566	1772060083.414
1785	900.000	0.011	900.000	0.113	0.615	1772060083.671
1786	900.000	0.010	900.002	0.061	5.146	1772060083.979
1787	900.000	-0.011	900.000	0.069	5.162	1772060084.286
1788	900.000	-0.006	900.002	0.094	1.103	1772060084.609
1789	900.000	-0.008	899.998	0.073	4.896	1772060084.904
1790	900.000	0.037	900.002	0.091	0.828	1772060085.222
1791	900.000	-0.023	899.998	0.035	0.343	1772060085.536
1792	900.000	0.030	900.002	0.074	3.828	1772060085.864
1793	900.000	0.001	899.997	0.113	1.331	1772060086.158
1794	900.000	0.000	900.000	0.069	3.938	1772060086.454
1795	900.000	-0.009	899.998	0.024	4.995	1772060086.755
1796	900.000	0.023	900.000	0.074	1.135	1772060087.066
1797	900.000	-0.016	900.000	0.042	5.264	1772060087.386
1798	900.000	0.024	900.000	0.043	0.900	1772060087.666
1799	900.000	-0.004	900.000	0.077	0.181	1772060087.938
1800	900.000	0.012	899.997	0.090	5.445	1772060088.234
1801	900.000	-0.017	899.999	0.095	1.398	1772060088.512
1802	900.000	0.008	900.002	0.062	0.039	1772060088.820
1803	900.000	0.011	899.998	0.114	4.622	1772060089.118
1804	900.000	0.001	900.000	0.116	0.723	1772060089.437
1805	900.000	-0.015	900.001	0.073	6.101	1772060089.761
1806	900.000	0.009	899.998	0.050	3.739	1772060090.058
1807	900.000	0.009	899.999	0.156	0.767	1772060090.362
1808	900.000	0.013	900.000	0.079	5.405	1772060090.699
1809	900.000	-0.017	899.996	0.088	1.185	1772060090.986
1810	900.000	-0.046	900.002	0.080	0.633	1772060091.289
1811	900.000	-0.012	900.001	0.077	4.394	1772060091.549
1812	900.000	-0.010	900.002	0.115	0.929	1772060091.866
1813	900.000	-0.010	900.001	0.086	0.465	1772060092.141
1814	900.000	-0.002	900.000	0.070	5.203	1772060092.430
1815	900.000	0.013	899.997	0.109	1.320	1772060092.738
1816	900.000	0.004	899.999	0.061	0.558	1772060093.058
1817	900.000	0.001	900.003	0.065	4.912	1772060093.365
1818	900.000	0.003	900.000	0.023	6.044	1772060093.673
1819	900.000	0.004	900.003	0.036	5.632	1772060093.942
1820	900.000	0.016	900.006	0.081	3.315	1772060094.234
1821	900.000	-0.001	899.997	0.160	0.594	1772060094.567
1822	900.000	0.011	900.001	0.072	3.922	1772060094.860
1823	900.000	-0.007	899.995	0.065	2.296	1772060095.175
1824	900.000	-0.002	900.003	0.081	0.158	1772060095.449
1825	900.000	-0.009	900.000	0.066	5.447	1772060095.716
1826	900.000	-0.003	900.000	0.049	0.720	1772060095.988
1827	900.000	-0.015	899.997	0.088	0.516	1772060096.321
1828	900.000	-0.004	899.998	0.047	3.299	1772060096.613
1829	900.000	-0.018	900.001	0.093	0.868	1772060096.925
1830	900.000	-0.013	900.003	0.036	5.363	1772060097.236
1831	900.000	-0.015	899.999	0.032	3.026	1772060097.553
1832	900.000	-0.014	900.001	0.124	0.662	1772060097.897
1833	900.000	0.005	899.999	0.030	4.271	1772060098.137
1834	900.000	0.016	899.996	0.049	6.147	1772060098.413
1835	900.000	-0.001	899.999	0.134	0.543	1772060098.686
1836	900.000	-0.010	900.000	0.044	5.197	1772060098.964
1837	900.000	-0.002	899.999	0.035	3.952	1772060099.273
1838	900.000	-0.004	899.998	0.106	0.722	1772060099.594
1839	900.000	-0.033	900.002	0.047	4.972	1772060099.901
1840	900.000	0.021	900.001	0.087	0.984	1772060100.214
1841	900.000	0.012	899.999	0.090	0.012	1772060100.513
1842	900.000	0.035	899.998	0.036	3.670	1772060100.759
1843	900.000	0.014	900.003	0.047	1.221	1772060101.030
1844	900.000	-0.012	899.996	0.041	0.855	1772060101.346
1845	900.000	0.017	900.001	0.053	4.489	1772060101.651
1846	900.000	-0.018	899.999	0.106	0.916	1772060101.955
1847	900.000	0.016	900.001	0.043	2.191	1772060102.271
1848	900.000	-0.015	900.000	0.034	1.004	1772060102.569
1849	900.000	-0.001	900.000	0.117	0.443	1772060102.838
1850	900.000	0.024	900.000	0.055	3.410	1772060103.133
1851	900.000	-0.006	900.000	0.069	3.280	1772060103.378
1852	900.000	-0.038	899.995	0.107	0.996	1772060103.652
1853	900.000	0.030	900.004	0.065	5.938	1772060103.899
1854	900.000	0.001	900.000	0.014	5.056	1772060104.179
1855	900.000	0.009	899.998	0.125	0.953	1772060104.480
1856	900.000	0.036	900.002	0.092	6.139	1772060104.804
1857	900.000	0.034	899.998	0.043	0.255	1772060105.108
1858	900.000	-0.001	899.998	0.124	0.352	1772060105.412
1859	900.000	-0.005	900.002	0.037	4.416	1772060105.733
1860	900.000	0.003	900.003	0.119	1.175	1772060106.035
1861	900.000	-0.007	900.002	0.068	6.176	1772060106.351
1862	900.000	-0.008	899.999	0.009	4.831	1772060106.682
1863	900.000	0.004	900.002	0.109	1.162	1772060106.976
1864	900.000	0.008	900.001	0.064	4.443	1772060107.304
1865	900.000	-0.007	900.001	0.060	1.174	1772060107.612
1866	900.000	-0.018	900.002	0.139	0.476	1772060107.901
1867	900.000	0.015	900.002	0.081	4.877	1772060108.168
1868	900.000	-0.030	900.000	0.049	0.761	1772060108.509
1869	900.000	-0.016	899.998	0.035	0.961	1772060108.792
1870	900.000	0.003	899.997	0.014	0.065	1772060109.108
1871	900.000	0.014	899.998	0.087	0.946	1772060109.420
1872	900.000	-0.004	900.001	0.044	4.613	1772060109.731
1873	900.000	0.035	900.000	0.059	2.989	1772060110.046
1874	900.000	0.001	900.000	0.098	0.556	1772060110.350
1875	900.000	-0.008	900.000	0.041	5.793	1772060110.671
1876	900.000	-0.035	899.997	0.062	1.991	1772060110.989
1877	900.000	0.014	900.005	0.035	0.303	1772060111.280
1878	900.000	-0.024	900.002	0.040	4.981	1772060111.552
1879	900.000	0.021	899.997	0.109	0.472	1772060111.887
1880	900.000	0.009	900.001	0.018	5.511	1772060112.188
1881	900.000	-0.029	899.999	0.028	1.561	1772060112.498
1882	900.000	0.008	900.001	0.115	1.313	1772060112.797
1883	900.000	0.001	900.001	0.075	4.770	1772060113.101
1884	900.000	0.012	900.000	0.075	1.650	1772060113.360
1885	900.000	0.009	899.999	0.152	0.495	1772060113.677
1886	900.000	0.019	900.000	0.073	3.728	1772060113.985
1887	900.000	-0.006	900.004	0.031	1.086	1772060114.265
1888	900.000	0.019	900.000	0.070	0.272	1772060114.577
1889	900.000	0.007	900.004	0.031	4.289	1772060114.881
1890	900.000	-0.002	899.999	0.076	1.473	1772060115.196
1891	900.000	-0.014	900.000	0.053	0.001	1772060115.518
1892	900.000	-0.032	900.001	0.032	4.628	1772060115.845
1893	900.000	0.009	900.001	0.066	1.067	1772060116.112
1894	900.000	-0.031	900.001	0.068	4.647	1772060116.411
1895	900.000	0.004	900.001	0.042	1.499	1772060116.688
1896	900.000	0.012	900.000	0.090	0.933	1772060116.994
1897	900.000	-0.005	899.998	0.048	5.546	1772060117.280
1898	900.000	0.008	899.999	0.049	0.914	1772060117.568
1899	900.000	-0.016	899.999	0.060	0.888	1772060117.834
1900	900.000	-0.021	899.996	0.044	4.872	1772060118.148
1901	900.000	0.021	900.001	0.088	1.387	1772060118.455
1902	900.000	0.013	900.003	0.042	1.673	1772060118.774
1903	900.000	-0.016	900.001	0.052	5.441	1772060119.058
1904	900.000	0.017	899.998	0.064	1.127	1772060119.376
1905	900.000	-0.013	900.000	0.114	5.387	1772060119.650
1906	900.000	0.002	899.998	0.041	4.634	1772060119.936
1907	900.000	0.003	900.002	0.102	0.840	1772060120.250
1908	900.000	-0.038	899.999	0.020	5.282	1772060120.534
1909	900.000	-0.001	900.002	0.024	4.284	1772060120.800
1910	900.000	0.004	900.003	0.103	0.927	1772060121.081
1911	900.000	-0.032	900.001	0.022	0.531	1772060121.376
1912	900.000	0.008	900.002	0.064	0.055	1772060121.625
1913	900.000	-0.036	899.999	0.071	0.881	1772060121.861
1914	900.000	0.021	900.003	0.054	0.338	1772060122.149
1915	900.000	0.016	899.999	0.055	4.060	1772060122.477
1916	900.000	0.010	900.001	0.082	0.840	1772060122.779
1917	900.000	-0.005	899.998	0.103	4.987	1772060123.064
1918	900.000	-0.014	899.997	0.017	2.456	1772060123.384
1919	900.000	0.015	900.000	0.109	0.376	1772060123.689
1920	900.000	-0.010	900.001	0.015	2.278	1772060124.008
1921	900.000	0.003	899.999	0.088	1.443	1772060124.251
1922	900.000	0.015	900.002	0.130	0.405	1772060124.516
1923	900.000	-0.035	900.000	0.099	4.320	1772060124.807
1924	900.000	-0.002	899.996	0.057	2.383	1772060125.084
1925	900.000	-0.011	900.001	0.061	0.988	1772060125.396
1926	900.000	0.015	900.001	0.058	4.036	1772060125.685
1927	900.000	0.005	900.000	0.067	1.396	1772060126.029
1928	900.000	-0.011	900.001	0.080	5.914	1772060126.331
1929	900.000	-0.035	900.000	0.053	4.275	1772060126.635
1930	900.000	0.004	899.999	0.083	0.577	1772060126.946
1931	900.000	-0.027	899.999	0.051	5.640	1772060127.244
1932	900.000	0.044	900.004	0.046	1.571	1772060127.501
1933	900.000	-0.008	900.001	0.081	0.590	1772060127.807
1934	900.000	0.005	900.001	0.020	2.197	1772060128.087
1935	900.000	0.030	900.000	0.027	1.025	1772060128.387
1936	900.000	0.043	900.001	0.092	0.736	1772060128.716
1937	900.000	-0.021	900.001	0.072	3.833	1772060129.000
1938	900.000	-0.002	899.999	0.090	0.943	1772060129.322
1939	900.000	-0.014	899.996	0.066	0.142	1772060129.627
1940	900.000	0.007	900.002	0.032	4.241	1772060129.946
1941	900.000	0.003	899.997	0.068	0.823	1772060130.271
1942	900.000	0.010	900.003	0.074	5.568	1772060130.563
1943	900.000	0.003	899.998	0.018	1.954	1772060130.878
1944	900.000	0.003	900.005	0.109	1.066	1772060131.144
1945	900.000	-0.032	900.005	0.053	4.718	1772060131.443
1946	900.000	0.026	900.000	0.022	0.247	1772060131.756
1947	900.000	-0.035	900.000	0.039	0.455	1772060132.078
1948	900.000	-0.018	900.000	0.037	4.645	1772060132.395
1949	900.000	0.011	899.997	0.046	1.415	1772060132.661
1950	900.000	0.014	900.000	0.067	0.202	1772060132.967
1951	900.000	0.007	899.999	0.053	5.176	1772060133.285
1952	900.000	0.023	900.005	0.086	1.150	1772060133.583
1953	900.000	-0.002	900.001	0.053	5.971	1772060133.891
1954	900.000	-0.039	900.005	0.079	4.009	1772060134.203
1955	900.000	-0.009	900.004	0.121	0.728	1772060134.499
1956	900.000	0.029	899.999	0.033	4.311	1772060134.745
1957	900.000	-0.017	899.999	0.096	2.823	1772060135.024
1958	900.000	-0.011	900.000	0.095	0.565	1772060135.323
1959	900.000	-0.020	899.998	0.046	6.075	1772060135.615
1960	900.000	-0.003	899.999	0.016	2.589	1772060135.897
1961	900.000	-0.002	900.001	0.096	0.750	1772060136.202
1962	900.000	-0.006	900.001	0.083	5.174	1772060136.506
1963	900.000	-0.011	900.000	0.116	0.676	1772060136.848
1964	900.000	-0.004	899.998	0.067	0.136	1772060137.136
1965	900.000	0.009	900.005	0.039	5.349	1772060137.435
1966	900.000	0.012	900.000	0.057	2.071	1772060137.732
1967	900.000	-0.009	900.001	0.091	0.693	1772060138.013
1968	900.000	0.001	899.998	0.039	5.624	1772060138.341
1969	900.000	0.001	900.001	0.037	1.120	1772060138.610
1970	900.000	0.007	900.001	0.068	5.552	1772060138.881
1971	900.000	0.027	899.999	0.032	5.220	1772060139.179
1972	900.000	0.013	900.001	0.140	1.006	1772060139.459
1973	900.000	0.013	899.997	0.057	5.409	1772060139.756
1974	900.000	-0.014	900.003	0.031	1.640	1772060140.058
1975	900.000	0.025	899.997	0.138	0.603	1772060140.342
1976	900.000	-0.027	899.998	0.076	5.096	1772060140.648
1977	900.000	-0.017	900.000	0.026	0.856	1772060140.945
1978	900.000	-0.001	900.000	0.114	0.230	1772060141.255
1979	900.000	0.025	899.998	0.072	4.349	1772060141.502
1980	900.000	0.026	899.999	0.068	1.770	1772060141.762
1981	900.000	0.003	899.999	0.082	0.297	1772060142.073
1982	900.000	0.013	900.000	0.089	4.477	1772060142.380
1983	900.000	-0.006	900.003	0.106	1.441	1772060142.710
1984	900.000	0.030	899.999	0.097	5.582	1772060143.014
1985	900.000	0.006	900.002	0.011	3.014	1772060143.300
1986	900.000	-0.023	900.002	0.090	0.752	1772060143.565
1987	900.000	-0.037	900.000	0.103	5.814	1772060143.888
1988	900.000	-0.008	899.999	0.026	4.379	1772060144.171
1989	900.000	0.008	900.002	0.125	0.610	1772060144.468
1990	900.000	0.020	900.001	0.021	5.152	1772060144.766
1991	900.000	0.014	900.003	0.029	0.664	1772060145.069
1992	900.000	0.004	899.999	0.098	0.315	1772060145.390
1993	900.000	-0.002	900.002	0.097	4.559	1772060145.693
1994	900.000	0.011	899.998	0.006	2.307	1772060146.003
1995	900.000	0.022	900.004	0.128	0.079	1772060146.272
1996	900.000	0.009	899.998	0.098	4.197	1772060146.585
1997	900.000	0.010	899.997	0.088	1.476	1772060146.891
1998	900.000	0.012	900.000	0.050	1.015	1772060147.191
1999	900.000	-0.011	899.999	0.028	4.080	1772060147.487
2000	900.000	0.051	899.999	0.170	0.648	1772060147.783
2001	900.000	-0.006	900.000	0.045	4.939	1772060148.075
2002	900.000	0.005	900.003	0.013	6.219	1772060148.371
2003	900.000	0.003	900.003	0.070	0.390	1772060148.685
2004	900.000	-0.039	900.001	0.086	4.827	1772060148.933
2005	900.000	-0.022	900.000	0.007	5.603	1772060149.242
2006	900.000	0.003	900.001	0.039	6.245	1772060149.529
2007	900.000	-0.012	899.998	0.068	6.083	1772060149.842
2008	900.000	0.005	900.001	0.038	1.985	1772060150.124
2009	900.000	0.022	900.000	0.070	0.577	1772060150.413
2010	900.000	0.014	900.000	0.057	4.178	1772060150.687
2011	900.000	0.029	899.998	0.038	2.299	1772060150.947
2012	900.000	-0.011	899.998	0.079	0.497	1772060151.249
2013	900.000	-0.022	899.999	0.079	4.326	1772060151.554
2014	900.000	-0.006	900.001	0.077	0.854	1772060151.868
2015	900.000	-0.009	900.000	0.036	5.599	1772060152.193
2016	900.000	-0.005	900.003	0.039	3.296	1772060152.509
2017	900.000	-0.033	899.997	0.124	0.501	1772060152.807
2018	900.000	-0.021	900.003	0.020	4.841	1772060153.112
2019	900.000	-0.004	899.998	0.051	1.801	1772060153.446
2020	900.000	-0.015	899.993	0.111	0.122	1772060153.769
2021	900.000	-0.030	900.001	0.044	4.637	1772060154.072
2022	900.000	0.022	899.999	0.080	0.960	1772060154.311
2023	900.000	-0.009	899.998	0.082	0.625	1772060154.619
2024	900.000	0.004	900.002	0.059	4.093	1772060154.869
2025	900.000	-0.004	899.999	0.031	2.511	1772060155.142
2026	900.000	0.007	899.995	0.042	0.141	1772060155.449
2027	900.000	0.025	899.998	0.079	4.592	1772060155.759
2028	900.000	-0.005	899.999	0.045	1.099	1772060156.078
2029	900.000	-0.012	900.001	0.053	5.780	1772060156.381
2030	900.000	-0.004	900.001	0.085	2.918	1772060156.705
2031	900.000	0.014	899.997	0.109	0.939	1772060157.002
2032	900.000	-0.007	899.999	0.070	6.153	1772060157.300
2033	900.000	-0.006	899.996	0.084	1.549	1772060157.574
2034	900.000	-0.025	900.000	0.074	0.944	1772060157.854
2035	900.000	0.010	899.998	0.008	1.962	1772060158.136
2036	900.000	-0.013	900.000	0.027	3.339	1772060158.439
2037	900.000	-0.007	899.998	0.107	0.661	1772060158.762
2038	900.000	-0.016	900.002	0.068	4.877	1772060159.064
2039	900.000	0.011	900.000	0.088	0.377	1772060159.381
2040	900.000	-0.028	900.003	0.042	5.860	1772060159.705
2041	900.000	-0.028	900.001	0.099	3.980	1772060160.007
2042	900.000	-0.015	899.999	0.102	1.153	1772060160.295
2043	900.000	0.002	900.000	0.063	4.217	1772060160.619
2044	900.000	-0.000	899.999	0.038	2.208	1772060160.898
2045	900.000	0.035	900.005	0.121	0.729	1772060161.176
2046	900.000	-0.015	899.998	0.040	5.118	1772060161.439
2047	900.000	0.001	900.000	0.018	4.308	1772060161.690
2048	900.000	0.001	900.001	0.108	0.747	1772060162.009
2049	900.000	0.016	899.999	0.040	5.101	1772060162.335
2050	900.000	-0.010	900.001	0.086	2.016	1772060162.642
2051	900.000	-0.018	899.999	0.072	6.216	1772060162.924
2052	900.000	-0.009	899.997	0.047	4.785	1772060163.240
2053	900.000	-0.018	899.999	0.105	1.888	1772060163.507
2054	900.000	-0.028	900.003	0.064	0.401	1772060163.816
2055	900.000	0.039	899.999	0.101	4.230	1772060164.075
2056	900.000	0.020	900.001	0.008	6.178	1772060164.385
2057	900.000	-0.001	899.999	0.082	6.036	1772060164.705
2058	900.000	0.031	900.001	0.026	5.286	1772060165.012
2059	900.000	0.015	899.999	0.108	0.853	1772060165.312
2060	900.000	-0.007	900.002	0.039	5.166	1772060165.633
2061	900.000	-0.036	899.997	0.029	3.626	1772060165.949
2062	900.000	-0.001	900.001	0.117	0.927	1772060166.222
2063	900.000	-0.024	900.000	0.080	5.195	1772060166.524
2064	900.000	0.043	900.000	0.025	1.891	1772060166.827
2065	900.000	0.014	899.999	0.120	0.526	1772060167.103
2066	900.000	0.005	900.000	0.068	4.204	1772060167.383
2067	900.000	0.006	900.002	0.054	0.527	1772060167.685
2068	900.000	-0.013	900.002	0.127	0.211	1772060167.958
2069	900.000	0.006	899.997	0.080	4.260	1772060168.257
2070	900.000	0.011	900.000	0.081	1.410	1772060168.579
2071	900.000	0.004	900.000	0.022	0.549	1772060168.888
2072	900.000	-0.001	899.997	0.053	4.634	1772060169.184
2073	900.000	0.019	899.999	0.127	1.155	1772060169.499
2074	900.000	0.011	900.003	0.082	5.277	1772060169.834
2075	900.000	0.016	899.993	0.050	0.861	1772060170.131
2076	900.000	0.011	899.998	0.092	1.506	1772060170.388
2077	900.000	-0.007	899.999	0.044	5.369	1772060170.697
2078	900.000	-0.009	899.999	0.045	2.192	1772060171.006
2079	900.000	0.015	899.997	0.097	6.209	1772060171.337
2080	900.000	-0.023	900.001	0.039	4.666	1772060171.624
2081	900.000	0.011	899.999	0.113	0.869	1772060171.929
2082	900.000	-0.062	900.002	0.042	0.125	1772060172.193
2083	900.000	0.001	899.999	0.007	0.950	1772060172.496
2084	900.000	-0.010	899.999	0.057	1.406	1772060172.781
2085	900.000	0.009	899.999	0.050	6.198	1772060173.096
2086	900.000	0.014	899.998	0.036	3.520	1772060173.389
2087	900.000	0.012	899.999	0.045	0.539	1772060173.705
2088	900.000	0.000	899.998	0.098	5.072	1772060174.011
2089	900.000	-0.008	899.997	0.044	0.235	1772060174.325
2090	900.000	-0.010	900.000	0.097	1.022	1772060174.649
2091	900.000	0.033	899.999	0.101	4.642	1772060174.935
2092	900.000	-0.022	900.000	0.033	0.554	1772060175.239
2093	900.000	0.027	899.997	0.088	0.408	1772060175.482
2094	900.000	-0.027	900.003	0.032	5.756	1772060175.783
2095	900.000	-0.027	899.999	0.027	0.586	1772060176.076
2096	900.000	0.001	900.000	0.089	0.230	1772060176.389
2097	900.000	0.008	899.997	0.042	3.486	1772060176.703
2098	900.000	-0.008	900.001	0.095	1.187	1772060177.022
2099	900.000	0.034	900.002	0.073	4.205	1772060177.324
2100	900.000	0.015	900.001	0.036	2.191	1772060177.640
2101	900.000	0.030	900.002	0.073	0.663	1772060177.968
2102	900.000	-0.001	899.998	0.065	4.418	1772060178.239
2103	900.000	-0.035	900.000	0.038	0.261	1772060178.517
2104	900.000	0.005	899.999	0.062	0.422	1772060178.808
2105	900.000	0.016	900.000	0.046	4.375	1772060179.140
2106	900.000	0.005	900.000	0.102	1.418	1772060179.447
2107	900.000	-0.016	900.000	0.074	6.145	1772060179.779
2108	900.000	0.009	900.002	0.066	4.944	1772060180.088
2109	900.000	-0.006	899.999	0.085	0.877	1772060180.360
2110	900.000	-0.006	900.001	0.067	3.484	1772060180.633
2111	900.000	-0.016	900.001	0.043	5.972	1772060180.951
2112	900.000	-0.022	900.000	0.108	0.976	1772060181.261
2113	900.000	0.004	899.998	0.046	4.670	1772060181.579
2114	900.000	-0.006	899.998	0.049	2.074	1772060181.898
2115	900.000	-0.006	899.996	0.082	6.100	1772060182.200
2116	900.000	0.021	900.002	0.049	5.098	1772060182.472
2117	900.000	0.041	900.006	0.117	0.865	1772060182.751
2118	900.000	-0.033	900.001	0.055	0.255	1772060183.065
2119	900.000	-0.010	900.001	0.067	5.243	1772060183.390
2120	900.000	0.016	899.998	0.076	1.496	1772060183.686
2121	900.000	0.003	900.001	0.002	0.407	1772060183.999
2122	900.000	0.019	899.999	0.025	4.815	1772060184.260
2123	900.000	0.030	899.999	0.117	0.758	1772060184.561
2124	900.000	-0.014	900.002	0.070	5.941	1772060184.878
2125	900.000	0.002	899.999	0.056	0.917	1772060185.212
2126	900.000	0.032	900.004	0.113	6.114	1772060185.509
2127	900.000	0.008	900.001	0.073	4.839	1772060185.809
2128	900.000	0.022	899.996	0.176	0.942	1772060186.057
2129	900.000	0.026	899.995	0.101	0.153	1772060186.370
2130	900.000	0.003	900.000	0.054	4.752	1772060186.631
2131	900.000	-0.006	900.004	0.096	0.971	1772060186.944
2132	900.000	0.018	899.999	0.053	0.006	1772060187.220
2133	900.000	0.001	900.002	0.019	5.510	1772060187.509
2134	900.000	-0.018	900.000	0.090	0.988	1772060187.833
2135	900.000	0.014	900.000	0.077	5.371	1772060188.149
2136	900.000	-0.005	900.000	0.045	4.744	1772060188.457
2137	900.000	0.004	900.003	0.059	1.483	1772060188.755
2138	900.000	-0.004	900.001	0.058	3.969	1772060189.073
2139	900.000	-0.001	900.000	0.121	1.405	1772060189.386
2140	900.000	0.005	899.998	0.003	1.633	1772060189.699
2141	900.000	-0.013	900.003	0.082	4.766	1772060190.018
2142	900.000	-0.057	899.999	0.078	0.307	1772060190.291
2143	900.000	0.008	899.997	0.063	5.946	1772060190.645
2144	900.000	0.001	899.998	0.034	0.002	1772060190.904
2145	900.000	-0.016	899.998	0.142	0.891	1772060191.214
2146	900.000	0.019	900.004	0.066	0.882	1772060191.514
2147	900.000	0.010	900.001	0.012	1.266	1772060191.827
2148	900.000	0.017	900.001	0.035	0.156	1772060192.095
2149	900.000	-0.002	899.996	0.055	4.193	1772060192.396
2150	900.000	0.010	900.002	0.115	0.950	1772060192.715
2151	900.000	0.005	900.001	0.069	6.053	1772060193.027
2152	900.000	0.010	899.997	0.054	4.032	1772060193.356
2153	900.000	-0.034	899.996	0.086	1.176	1772060193.653
2154	900.000	0.009	899.998	0.067	5.675	1772060193.965
2155	900.000	-0.002	900.002	0.036	2.287	1772060194.269
2156	900.000	-0.036	900.005	0.098	0.464	1772060194.598
2157	900.000	-0.010	899.996	0.049	4.411	1772060194.892
2158	900.000	0.030	900.003	0.062	1.575	1772060195.179
2159	900.000	-0.016	900.002	0.144	0.498	1772060195.464
2160	900.000	-0.016	899.999	0.078	4.639	1772060195.706
2161	900.000	0.045	899.998	0.060	1.372	1772060196.025
2162	900.000	0.013	900.001	0.080	0.150	1772060196.344
2163	900.000	0.012	900.003	0.074	4.098	1772060196.664
2164	900.000	0.039	899.998	0.069	1.429	1772060196.976
2165	900.000	-0.012	899.998	0.062	6.036	1772060197.290
2166	900.000	0.014	900.004	0.035	0.612	1772060197.602
2167	900.000	-0.010	899.999	0.078	0.456	1772060197.903
2168	900.000	-0.023	900.000	0.099	5.281	1772060198.203
2169	900.000	0.029	900.000	0.081	1.662	1772060198.441
2170	900.000	0.022	900.003	0.169	0.793	1772060198.712
2171	900.000	0.013	899.999	0.018	5.404	1772060199.002
2172	900.000	-0.015	900.001	0.081	0.376	1772060199.291
2173	900.000	-0.008	899.997	0.097	0.042	1772060199.582
2174	900.000	0.019	900.006	0.063	4.609	1772060199.903
2175	900.000	-0.013	899.998	0.045	2.215	1772060200.224
2176	900.000	0.003	899.999	0.106	6.087	1772060200.523
2177	900.000	-0.004	900.003	0.038	3.348	1772060200.790
2178	900.000	-0.006	899.999	0.117	1.080	1772060201.075
2179	900.000	-0.003	899.999	0.056	0.388	1772060201.335
2180	900.000	0.004	899.996	0.045	5.131	1772060201.588
2181	900.000	-0.012	900.002	0.060	1.225	1772060201.900
2182	900.000	0.025	899.999	0.008	6.077	1772060202.222
2183	900.000	0.010	900.000	0.004	1.815	1772060202.532
2184	900.000	0.019	900.000	0.152	0.843	1772060202.818
2185	900.000	-0.012	899.999	0.039	4.832	1772060203.089
2186	900.000	-0.005	899.999	0.023	4.227	1772060203.389
2187	900.000	0.024	900.003	0.024	4.925	1772060203.682
2188	900.000	-0.010	899.997	0.104	3.861	1772060203.969
2189	900.000	0.027	900.002	0.063	0.524	1772060204.268
2190	900.000	-0.015	899.999	0.101	0.435	1772060204.547
2191	900.000	0.008	900.002	0.084	4.083	1772060204.835
2192	900.000	0.000	900.000	0.069	2.676	1772060205.094
2193	900.000	0.013	900.003	0.126	0.250	1772060205.405
2194	900.000	0.013	900.000	0.055	4.904	1772060205.728
2195	900.000	-0.022	899.999	0.090	0.708	1772060206.026
2196	900.000	-0.005	899.999	0.031	0.038	1772060206.344
2197	900.000	-0.016	900.001	0.016	4.542	1772060206.653
2198	900.000	-0.034	899.997	0.127	0.713	1772060206.956
2199	900.000	-0.008	900.000	0.098	5.840	1772060207.255
2200	900.000	0.015	899.999	0.038	5.559	1772060207.579
2201	900.000	0.001	900.000	0.103	0.631	1772060207.870
2202	900.000	-0.013	900.002	0.104	4.233	1772060208.171
2203	900.000	-0.011	899.999	0.075	0.799	1772060208.421
2204	900.000	-0.002	899.998	0.064	0.059	1772060208.734
2205	900.000	-0.009	900.001	0.065	4.952	1772060209.050
2206	900.000	0.011	900.000	0.082	1.063	1772060209.373
2207	900.000	-0.004	900.003	0.043	1.046	1772060209.698
2208	900.000	-0.002	899.999	0.021	4.464	1772060209.985
2209	900.000	-0.014	899.999	0.046	1.604	1772060210.302
2210	900.000	-0.035	900.000	0.024	2.373	1772060210.618
2211	900.000	-0.004	899.999	0.015	0.761	1772060210.904
2212	900.000	0.027	899.999	0.086	0.332	1772060211.185
2213	900.000	-0.036	899.999	0.066	5.102	1772060211.447
2214	900.000	-0.012	900.000	0.045	6.103	1772060211.710
2215	900.000	-0.002	900.000	0.071	0.745	1772060212.016
2216	900.000	0.009	899.997	0.080	5.623	1772060212.325
2217	900.000	0.000	899.999	0.086	2.067	1772060212.628
2218	900.000	-0.007	899.998	0.058	0.662	1772060212.882
2219	900.000	0.011	900.003	0.108	5.320	1772060213.233
2220	900.000	-0.018	900.002	0.037	0.708	1772060213.505
2221	900.000	-0.007	899.999	0.078	0.310	1772060213.792
2222	900.000	0.009	900.000	0.009	3.608	1772060214.058
2223	900.000	-0.005	899.995	0.101	1.215	1772060214.340
2224	900.000	-0.007	900.000	0.055	0.536	1772060214.644
2225	900.000	0.012	899.998	0.034	3.632	1772060214.968
2226	900.000	0.002	899.999	0.038	0.988	1772060215.264
2227	900.000	0.022	899.999	0.104	5.601	1772060215.549
2228	900.000	-0.011	900.001	0.078	3.903	1772060215.833
2229	900.000	-0.006	900.001	0.114	1.023	1772060216.127
2230	900.000	-0.022	900.001	0.043	5.024	1772060216.437
2231	900.000	-0.009	899.999	0.096	0.787	1772060216.747
2232	900.000	0.014	900.000	0.098	0.834	1772060216.990
2233	900.000	-0.004	899.999	0.046	4.929	1772060217.269
2234	900.000	0.003	899.998	0.051	6.231	1772060217.565
2235	900.000	0.027	899.999	0.122	0.444	1772060217.825
2236	900.000	-0.015	900.003	0.045	4.303	1772060218.143
2237	900.000	0.015	899.999	0.025	6.234	1772060218.410
2238	900.000	-0.009	900.005	0.115	0.528	1772060218.692
2239	900.000	0.028	899.997	0.013	4.079	1772060218.961
2240	900.000	-0.028	899.999	0.031	1.544	1772060219.210
2241	900.000	-0.013	900.003	0.080	0.641	1772060219.525
2242	900.000	-0.010	899.999	0.073	5.324	1772060219.835
2243	900.000	-0.001	899.999	0.066	1.147	1772060220.142
2244	900.000	-0.011	900.000	0.101	0.597	1772060220.447
2245	900.000	0.016	900.001	0.077	4.491	1772060220.766
2246	900.000	0.022	900.001	0.068	1.528	1772060221.096
2247	900.000	0.020	900.001	0.019	5.017	1772060221.412
2248	900.000	-0.035	900.001	0.044	3.186	1772060221.718
2249	900.000	0.009	899.998	0.102	0.813	1772060222.002
2250	900.000	-0.008	899.996	0.113	5.678	1772060222.280
2251	900.000	-0.015	900.002	0.045	0.399	1772060222.600
2252	900.000	-0.002	900.002	0.027	1.983	1772060222.873
2253	900.000	0.007	900.004	0.089	4.790	1772060223.153
2254	900.000	0.007	900.001	0.083	1.289	1772060223.441
2255	900.000	-0.010	899.998	0.119	0.493	1772060223.726
2256	900.000	0.027	899.999	0.058	4.051	1772060224.015
2257	900.000	-0.011	899.999	0.082	3.239	1772060224.249
2258	900.000	0.012	899.997	0.089	0.940	1772060224.513
2259	900.000	0.016	900.003	0.044	4.558	1772060224.761
2260	900.000	-0.022	899.999	0.034	3.183	1772060225.024
2261	900.000	-0.003	899.999	0.072	0.671	1772060225.322
2262	900.000	-0.036	900.002	0.108	4.806	1772060225.649
2263	900.000	0.012	900.003	0.085	0.432	1772060225.962
2264	900.000	0.020	899.999	0.047	0.591	1772060226.280
2265	900.000	0.004	900.002	0.044	5.122	1772060226.595
2266	900.000	0.012	899.996	0.116	0.778	1772060226.920
2267	900.000	0.007	899.998	0.066	5.379	1772060227.227
2268	900.000	0.018	899.996	0.020	5.537	1772060227.515
2269	900.000	0.001	900.003	0.067	1.602	1772060227.756
2270	900.000	-0.021	900.002	0.064	6.063	1772060228.078
2271	900.000	0.025	899.997	0.027	0.331	1772060228.349
2272	900.000	-0.000	900.001	0.093	1.144	1772060228.652
2273	900.000	-0.032	899.998	0.015	4.511	1772060228.965
2274	900.000	0.012	900.002	0.033	0.657	1772060229.287
2275	900.000	0.012	900.001	0.121	0.207	1772060229.588
2276	900.000	0.003	899.998	0.053	4.350	1772060229.910
2277	900.000	-0.025	900.001	0.128	0.778	1772060230.195
2278	900.000	0.031	900.001	0.077	5.223	1772060230.510
2279	900.000	0.016	899.997	0.051	4.760	1772060230.785
2280	900.000	0.024	900.000	0.108	0.704	1772060231.074
2281	900.000	0.016	899.998	0.059	5.972	1772060231.346
2282	900.000	0.052	899.998	0.019	3.976	1772060231.650
2283	900.000	0.006	899.999	0.102	1.376	1772060231.907
2284	900.000	-0.023	900.003	0.051	4.116	1772060232.231
2285	900.000	0.008	899.998	0.046	1.457	1772060232.568
2286	900.000	0.006	900.004	0.118	0.668	1772060232.842
2287	900.000	-0.004	900.000	0.015	0.276	1772060233.147
2288	900.000	-0.016	899.998	0.094	1.333	1772060233.474
2289	900.000	-0.011	899.997	0.052	5.578	1772060233.794
2290	900.000	-0.003	900.000	0.058	3.649	1772060234.111
2291	900.000	0.040	900.000	0.053	0.246	1772060234.406
2292	900.000	0.008	900.001	0.057	4.882	1772060234.707
2293	900.000	-0.014	900.000	0.028	2.469	1772060235.024
2294	900.000	-0.010	899.998	0.079	0.902	1772060235.308
2295	900.000	0.016	900.001	0.064	5.378	1772060235.548
2296	900.000	0.037	900.002	0.094	0.105	1772060235.889
2297	900.000	-0.026	899.998	0.067	0.364	1772060236.191
2298	900.000	-0.007	899.997	0.051	4.099	1772060236.489
2299	900.000	0.015	899.996	0.038	0.660	1772060236.809
2300	900.000	-0.010	899.998	0.048	5.421	1772060237.138
2301	900.000	-0.023	900.001	0.044	4.466	1772060237.433
2302	900.000	0.006	900.002	0.147	0.815	1772060237.738
2303	900.000	0.023	899.998	0.063	5.700	1772060238.037
2304	900.000	-0.020	899.999	0.080	0.720	1772060238.358
2305	900.000	0.000	900.002	0.142	0.552	1772060238.626
2306	900.000	0.006	899.998	0.117	5.438	1772060238.933
2307	900.000	-0.030	899.997	0.107	1.216	1772060239.231
2308	900.000	-0.017	900.000	0.097	0.448	1772060239.494
2309	900.000	0.019	900.000	0.101	4.065	1772060239.787
2310	900.000	0.006	900.000	0.031	6.073	1772060240.050
2311	900.000	0.038	900.000	0.099	6.270	1772060240.367
2312	900.000	0.019	900.002	0.059	4.492	1772060240.663
2313	900.000	-0.009	899.999	0.052	0.854	1772060240.958
2314	900.000	0.026	899.997	0.090	6.039	1772060241.222
2315	900.000	-0.024	900.002	0.094	4.351	1772060241.489
2316	900.000	-0.012	900.002	0.055	1.638	1772060241.755
2317	900.000	-0.002	900.004	0.019	1.913	1772060242.041
2318	900.000	0.003	900.000	0.020	5.081	1772060242.356
2319	900.000	-0.017	899.999	0.121	0.655	1772060242.628
2320	900.000	-0.025	900.001	0.043	0.675	1772060242.908
2321	900.000	0.017	900.003	0.034	5.231	1772060243.178
2322	900.000	-0.008	899.999	0.096	0.982	1772060243.491
2323	900.000	0.006	900.002	0.051	4.893	1772060243.789
2324	900.000	-0.003	899.999	0.036	3.957	1772060244.100
2325	900.000	-0.051	900.003	0.052	0.654	1772060244.380
2326	900.000	0.009	899.997	0.036	5.191	1772060244.695
2327	900.000	0.039	899.998	0.049	0.703	1772060244.998
2328	900.000	-0.030	900.005	0.131	0.458	1772060245.327
2329	900.000	0.004	899.999	0.083	4.691	1772060245.644
2330	900.000	-0.008	899.997	0.106	1.171	1772060245.953
2331	900.000	-0.010	900.001	0.054	5.931	1772060246.291
2332	900.000	-0.047	900.003	0.051	4.673	1772060246.583
2333	900.000	-0.005	900.002	0.074	0.814	1772060246.874
2334	900.000	0.016	899.994	0.098	0.390	1772060247.129
2335	900.000	-0.000	899.999	0.048	3.369	1772060247.425
2336	900.000	-0.008	900.001	0.134	0.540	1772060247.687
2337	900.000	-0.005	900.000	0.089	5.984	1772060247.932
2338	900.000	0.008	900.004	0.106	3.540	1772060248.212
2339	900.000	-0.003	900.001	0.111	1.038	1772060248.504
2340	900.000	0.034	900.000	0.071	5.513	1772060248.825
2341	900.000	0.063	900.002	0.038	0.030	1772060249.114
2342	900.000	-0.001	900.001	0.137	0.854	1772060249.372
2343	900.000	-0.006	899.999	0.109	0.022	1772060249.627
2344	900.000	0.021	900.000	0.062	3.338	1772060249.874
2345	900.000	-0.009	899.998	0.117	0.781	1772060250.198
2346	900.000	0.013	899.999	0.069	5.517	1772060250.509
2347	900.000	0.020	899.997	0.021	3.951	1772060250.812
2348	900.000	0.058	900.000	0.054	0.276	1772060251.065
2349	900.000	0.021	900.001	0.039	4.414	1772060251.374
2350	900.000	-0.033	899.999	0.007	0.901	1772060251.692
2351	900.000	0.026	900.001	0.044	1.134	1772060252.002
2352	900.000	-0.009	899.999	0.079	5.749	1772060252.262
2353	900.000	0.002	899.996	0.058	0.716	1772060252.575
2354	900.000	0.014	900.002	0.004	5.790	1772060252.891
2355	900.000	-0.004	900.000	0.073	3.725	1772060253.202
2356	900.000	0.014	900.003	0.102	1.045	1772060253.513
2357	900.000	0.005	900.003	0.047	4.243	1772060253.825
2358	900.000	0.007	899.996	0.021	4.557	1772060254.147
2359	900.000	-0.031	899.999	0.081	1.130	1772060254.434
2360	900.000	0.012	899.998	0.070	5.464	1772060254.723
2361	900.000	0.022	900.001	0.007	1.474	1772060255.027
2362	900.000	-0.003	899.999	0.099	0.303	1772060255.331
2363	900.000	0.016	900.001	0.055	5.719	1772060255.592
2364	900.000	-0.025	900.000	0.034	0.558	1772060255.894
2365	900.000	-0.026	899.997	0.079	0.143	1772060256.217
2366	900.000	-0.011	900.000	0.068	4.050	1772060256.505
2367	900.000	0.002	900.001	0.075	1.435	1772060256.845
2368	900.000	-0.033	900.002	0.083	5.230	1772060257.131
2369	900.000	0.003	900.000	0.077	4.923	1772060257.454
2370	900.000	-0.014	899.996	0.151	1.141	1772060257.749
2371	900.000	0.002	900.001	0.065	0.304	1772060258.023
2372	900.000	-0.007	899.994	0.045	6.107	1772060258.323
2373	900.000	-0.009	899.997	0.103	0.465	1772060258.610
2374	900.000	0.034	899.997	0.055	4.775	1772060258.879
2375	900.000	-0.007	900.001	0.034	2.684	1772060259.194
2376	900.000	0.015	899.997	0.082	0.475	1772060259.506
2377	900.000	0.031	899.996	0.074	5.099	1772060259.819
2378	900.000	-0.001	900.003	0.122	1.109	1772060260.094
2379	900.000	0.009	899.998	0.098	0.305	1772060260.408
2380	900.000	0.031	900.002	0.024	5.514	1772060260.724
2381	900.000	0.007	900.000	0.090	0.815	1772060261.015
2382	900.000	0.012	899.999	0.010	1.820	1772060261.347
2383	900.000	0.013	900.005	0.034	4.537	1772060261.653
2384	900.000	0.001	900.000	0.118	1.320	1772060261.980
2385	900.000	0.006	899.996	0.050	5.350	1772060262.248
2386	900.000	0.007	899.999	0.060	0.592	1772060262.537
2387	900.000	-0.028	899.997	0.082	0.388	1772060262.849
2388	900.000	0.006	899.996	0.017	3.427	1772060263.135
2389	900.000	-0.001	900.000	0.089	0.966	1772060263.436
2390	900.000	0.021	900.000	0.118	0.265	1772060263.717
2391	900.000	-0.010	899.999	0.044	3.749	1772060264.017
2392	900.000	-0.011	900.003	0.085	0.717	1772060264.315
2393	900.000	-0.003	900.002	0.089	0.044	1772060264.597
2394	900.000	-0.018	900.000	0.063	4.278	1772060264.903
2395	900.000	0.008	900.004	0.076	0.567	1772060265.218
2396	900.000	0.009	899.998	0.035	0.437	1772060265.524
2397	900.000	0.013	900.001	0.018	1.066	1772060265.853
2398	900.000	0.006	899.999	0.126	0.811	1772060266.165
2399	900.000	-0.004	899.999	0.048	5.503	1772060266.465
2400	900.000	-0.015	900.001	0.028	1.356	1772060266.786
2401	900.000	-0.012	899.998	0.106	0.367	1772060267.089
2402	900.000	0.020	900.002	0.074	4.597	1772060267.383
2403	900.000	0.003	899.998	0.042	1.057	1772060267.704
2404	900.000	0.005	900.000	0.151	0.651	1772060267.958
2405	900.000	0.002	900.001	0.030	4.709	1772060268.294
2406	900.000	0.003	899.999	0.021	0.693	1772060268.585
2407	900.000	0.004	900.000	0.035	0.493	1772060268.819
2408	900.000	0.021	899.999	0.037	4.757	1772060269.089
2409	900.000	-0.011	899.999	0.082	1.155	1772060269.380
2410	900.000	0.011	899.998	0.084	1.031	1772060269.639
2411	900.000	-0.022	899.997	0.079	5.119	1772060269.873
2412	900.000	-0.005	900.001	0.040	1.468	1772060270.150
2413	900.000	-0.006	899.998	0.093	0.301	1772060270.475
2414	900.000	0.007	899.999	0.018	5.574	1772060270.748
2415	900.000	0.004	900.001	0.043	2.388	1772060271.017
2416	900.000	0.013	899.998	0.036	0.026	1772060271.341
2417	900.000	0.011	900.003	0.078	4.979	1772060271.648
2418	900.000	0.009	900.000	0.102	0.853	1772060271.949
2419	900.000	0.020	899.997	0.051	5.550	1772060272.217
2420	900.000	0.007	900.005	0.031	5.334	1772060272.526
2421	900.000	0.018	900.002	0.122	0.713	1772060272.837
2422	900.000	0.009	900.005	0.079	5.638	1772060273.134
2423	900.000	0.020	899.998	0.012	3.773	1772060273.389
2424	900.000	0.031	899.999	0.107	0.597	1772060273.701
2425	900.000	0.015	900.001	0.079	5.926	1772060273.981
2426	900.000	-0.003	899.999	0.041	0.084	1772060274.282
2427	900.000	-0.032	899.997	0.073	0.112	1772060274.569
2428	900.000	-0.028	899.998	0.052	4.337	1772060274.843
2429	900.000	0.004	900.001	0.075	3.981	1772060275.142
2430	900.000	0.007	900.003	0.124	0.449	1772060275.462
2431	900.000	-0.007	900.003	0.087	4.509	1772060275.769
2432	900.000	-0.005	900.004	0.050	0.875	1772060276.064
2433	900.000	0.002	900.003	0.091	0.300	1772060276.348
2434	900.000	0.003	900.001	0.034	4.917	1772060276.667
2435	900.000	-0.002	900.002	0.098	1.426	1772060276.970
2436	900.000	-0.010	899.998	0.066	5.897	1772060277.282
2437	900.000	0.011	900.001	0.036	4.438	1772060277.604
2438	900.000	0.012	900.002	0.139	0.322	1772060277.912
2439	900.000	0.002	900.002	0.095	5.188	1772060278.219
2440	900.000	-0.012	900.000	0.021	1.095	1772060278.531
2441	900.000	0.022	899.998	0.103	0.626	1772060278.829
2442	900.000	-0.026	900.001	0.057	5.667	1772060279.087
2443	900.000	0.001	899.998	0.051	1.363	1772060279.406
2444	900.000	-0.001	899.997	0.094	5.940	1772060279.710
2445	900.000	0.013	900.003	0.128	4.127	1772060280.003
2446	900.000	-0.016	900.000	0.097	1.058	1772060280.281
2447	900.000	0.001	900.002	0.066	6.077	1772060280.605
2448	900.000	-0.020	900.003	0.072	4.353	1772060280.915
2449	900.000	0.019	899.998	0.144	0.598	1772060281.212
2450	900.000	0.026	899.999	0.020	5.885	1772060281.538
2451	900.000	0.002	900.002	0.065	0.457	1772060281.841
2452	900.000	-0.013	899.999	0.138	0.521	1772060282.156
2453	900.000	-0.025	900.000	0.040	5.198	1772060282.451
2454	900.000	0.013	900.003	0.041	0.414	1772060282.776
2455	900.000	-0.017	899.997	0.042	0.911	1772060283.082
2456	900.000	-0.013	900.003	0.056	6.115	1772060283.317
2457	900.000	0.024	900.003	0.065	0.125	1772060283.586
2458	900.000	0.012	900.000	0.073	6.100	1772060283.908
2459	900.000	-0.004	900.000	0.054	4.845	1772060284.198
2460	900.000	0.024	900.003	0.104	0.495	1772060284.458
2461	900.000	0.012	899.998	0.036	5.554	1772060284.796
2462	900.000	-0.014	900.002	0.026	3.858	1772060285.061
2463	900.000	-0.011	900.004	0.095	0.617	1772060285.336
2464	900.000	0.036	900.001	0.052	4.079	1772060285.637
2465	900.000	-0.030	900.001	0.075	3.402	1772060285.894
2466	900.000	-0.043	899.999	0.104	0.643	1772060286.203
2467	900.000	-0.019	899.999	0.049	4.772	1772060286.515
2468	900.000	-0.004	899.997	0.027	5.644	1772060286.788
2469	900.000	-0.016	899.999	0.080	0.859	1772060287.094
2470	900.000	-0.003	900.001	0.056	5.064	1772060287.412
2471	900.000	0.022	900.002	0.036	1.675	1772060287.720
2472	900.000	0.004	899.999	0.047	0.013	1772060288.031
2473	900.000	-0.012	900.000	0.051	4.563	1772060288.347
2474	900.000	0.018	900.000	0.070	0.514	1772060288.645
2475	900.000	-0.004	899.998	0.074	5.519	1772060288.975
2476	900.000	0.024	899.999	0.017	2.358	1772060289.255
2477	900.000	0.003	899.999	0.050	0.449	1772060289.571
2478	900.000	0.016	899.999	0.038	2.551	1772060289.896
2479	900.000	0.032	900.001	0.052	0.755	1772060290.197
2480	900.000	0.008	900.001	0.095	0.495	1772060290.449
2481	900.000	-0.018	899.998	0.134	6.046	1772060290.706
2482	900.000	-0.020	900.002	0.068	1.226	1772060291.049
2483	900.000	0.024	900.002	0.076	0.269	1772060291.318
2484	900.000	-0.011	899.996	0.118	5.001	1772060291.602
2485	900.000	-0.022	899.999	0.057	1.230	1772060291.881
2486	900.000	0.015	899.999	0.055	0.566	1772060292.176
2487	900.000	0.013	899.996	0.120	4.149	1772060292.465
2488	900.000	-0.009	900.000	0.075	0.835	1772060292.742
2489	900.000	-0.040	900.002	0.042	0.120	1772060293.013
2490	900.000	-0.001	900.000	0.069	4.086	1772060293.264
2491	900.000	-0.012	900.000	0.069	0.411	1772060293.584
2492	900.000	0.017	899.998	0.023	5.846	1772060293.848
2493	900.000	0.043	899.998	0.070	3.808	1772060294.136
2494	900.000	0.023	900.000	0.112	1.052	1772060294.466
2495	900.000	-0.016	899.999	0.053	5.805	1772060294.763
2496	900.000	-0.001	900.000	0.059	0.293	1772060295.012
2497	900.000	0.020	900.005	0.095	0.468	1772060295.276
2498	900.000	-0.033	899.998	0.022	6.200	1772060295.596
2499	900.000	-0.007	899.999	0.018	4.677	1772060295.887
2500	900.000	0.024	899.997	0.133	0.627	1772060296.219
2501	900.000	0.024	899.998	0.092	4.602	1772060296.524
2502	900.000	0.011	899.998	0.052	5.534	1772060296.877
2503	900.000	0.006	900.003	0.138	0.512	1772060297.139
2504	900.000	0.017	900.001	0.058	5.778	1772060297.454
2505	900.000	-0.012	900.002	0.106	0.632	1772060297.768
2506	900.000	-0.013	899.997	0.026	5.066	1772060298.073
2507	900.000	-0.020	900.003	0.014	0.683	1772060298.331
2508	900.000	-0.025	900.001	0.092	0.515	1772060298.653
2509	900.000	-0.007	900.001	0.052	5.661	1772060298.946
2510	900.000	-0.001	900.001	0.017	1.486	1772060299.207
2511	900.000	0.012	899.999	0.130	0.603	1772060299.530
2512	900.000	-0.006	900.000	0.053	4.588	1772060299.849
2513	900.000	0.009	900.003	0.046	6.265	1772060300.136
2514	900.000	-0.005	900.004	0.126	0.587	1772060300.404
2515	900.000	-0.001	900.000	0.059	4.986	1772060300.701
2516	900.000	-0.010	900.001	0.080	0.205	1772060300.954
2517	900.000	0.017	900.001	0.091	0.157	1772060301.245
2518	900.000	-0.001	899.999	0.048	4.282	1772060301.542
2519	900.000	-0.021	899.998	0.069	0.916	1772060301.846
2520	900.000	0.021	899.998	0.089	0.442	1772060302.160
2521	900.000	-0.005	900.001	0.058	0.198	1772060302.429
2522	900.000	-0.016	900.003	0.103	0.476	1772060302.734
2523	900.000	-0.022	900.000	0.094	5.787	1772060303.060
2524	900.000	0.020	899.998	0.008	5.150	1772060303.348
2525	900.000	0.007	900.002	0.130	0.387	1772060303.674
2526	900.000	0.036	900.001	0.023	5.424	1772060303.949
2527	900.000	0.004	899.997	0.040	1.212	1772060304.224
2528	900.000	-0.003	899.998	0.112	0.700	1772060304.543
2529	900.000	0.000	900.001	0.119	4.912	1772060304.857
2530	900.000	-0.003	899.999	0.038	2.273	1772060305.162
2531	900.000	0.005	900.003	0.035	0.040	1772060305.470
2532	900.000	0.015	900.001	0.067	5.716	1772060305.714
2533	900.000	-0.022	899.999	0.085	0.641	1772060306.033
2534	900.000	0.031	899.998	0.016	2.599	1772060306.287
2535	900.000	-0.006	899.999	0.061	4.038	1772060306.546
2536	900.000	0.017	899.998	0.046	0.943	1772060306.867
2537	900.000	0.007	900.000	0.076	5.985	1772060307.169
2538	900.000	0.031	900.000	0.022	5.597	1772060307.466
2539	900.000	0.022	900.003	0.089	0.758	1772060307.790
2540	900.000	-0.010	899.998	0.050	5.876	1772060308.116
2541	900.000	-0.005	900.001	0.053	0.701	1772060308.417
2542	900.000	-0.033	900.003	0.041	0.056	1772060308.729
2543	900.000	-0.003	899.997	0.117	4.892	1772060308.987
2544	900.000	0.007	900.001	0.119	1.225	1772060309.294
2545	900.000	-0.022	900.001	0.047	6.270	1772060309.599
2546	900.000	-0.003	900.003	0.047	5.133	1772060309.925
2547	900.000	-0.008	900.001	0.058	0.671	1772060310.221
2548	900.000	-0.028	900.001	0.041	4.431	1772060310.543
2549	900.000	-0.005	899.999	0.009	1.572	1772060310.867
2550	900.000	0.012	899.998	0.121	0.813	1772060311.166
2551	900.000	-0.015	900.000	0.119	3.868	1772060311.442
2552	900.000	-0.020	900.000	0.039	0.541	1772060311.727
2553	900.000	-0.023	900.004	0.092	1.098	1772060312.030
2554	900.000	0.007	900.001	0.059	4.932	1772060312.293
2555	900.000	0.016	900.001	0.073	1.936	1772060312.576
2556	900.000	-0.019	900.000	0.118	0.537	1772060312.869
2557	900.000	0.012	900.001	0.058	5.241	1772060313.203
2558	900.000	0.030	899.999	0.087	1.986	1772060313.498
2559	900.000	-0.009	900.002	0.065	5.574	1772060313.814
2560	900.000	-0.009	900.001	0.072	4.093	1772060314.116
2561	900.000	0.004	899.999	0.057	0.233	1772060314.410
2562	900.000	-0.022	899.998	0.108	5.843	1772060314.692
2563	900.000	0.038	900.001	0.045	3.596	1772060314.997
2564	900.000	0.005	900.001	0.055	0.368	1772060315.322
2565	900.000	0.021	900.002	0.093	4.834	1772060315.598
2566	900.000	0.022	900.001	0.114	0.005	1772060315.873
2567	900.000	-0.010	900.001	0.106	0.589	1772060316.196
2568	900.000	-0.043	900.001	0.073	4.932	1772060316.499
2569	900.000	-0.007	899.999	0.085	0.818	1772060316.813
2570	900.000	0.013	900.000	0.073	5.887	1772060317.115
2571	900.000	0.048	900.001	0.025	4.162	1772060317.345
2572	900.000	0.030	899.999	0.056	0.645	1772060317.609
2573	900.000	-0.019	900.001	0.064	5.816	1772060317.868
2574	900.000	0.023	900.002	0.080	5.190	1772060318.167
2575	900.000	0.009	900.003	0.122	0.459	1772060318.423
2576	900.000	-0.010	899.999	0.075	5.998	1772060318.746
2577	900.000	0.008	900.005	0.077	4.329	1772060319.054
2578	900.000	0.009	900.001	0.107	0.480	1772060319.356
2579	900.000	-0.025	899.999	0.043	5.683	1772060319.631
2580	900.000	0.006	900.000	0.046	4.188	1772060319.928
2581	900.000	-0.038	900.000	0.104	0.448	1772060320.239
2582	900.000	-0.034	900.001	0.078	4.977	1772060320.490
2583	900.000	-0.008	900.000	0.039	4.621	1772060320.757
2584	900.000	0.005	900.001	0.197	0.510	1772060321.024
2585	900.000	0.035	900.003	0.050	5.784	1772060321.347
2586	900.000	-0.005	900.001	0.060	0.819	1772060321.647
2587	900.000	0.002	900.005	0.129	0.514	1772060321.954
2588	900.000	0.008	900.002	0.088	5.064	1772060322.241
2589	900.000	0.021	900.001	0.069	1.392	1772060322.500
2590	900.000	-0.007	900.005	0.055	0.467	1772060322.820
2591	900.000	0.004	899.998	0.055	4.774	1772060323.110
2592	900.000	-0.013	899.999	0.117	0.944	1772060323.381
2593	900.000	-0.002	899.994	0.057	0.111	1772060323.701
2594	900.000	-0.010	900.000	0.031	4.532	1772060323.983
2595	900.000	0.003	900.001	0.029	0.972	1772060324.261
2596	900.000	-0.018	900.005	0.042	4.648	1772060324.589
2597	900.000	0.003	900.000	0.040	5.939	1772060324.866
2598	900.000	-0.002	900.002	0.096	0.857	1772060325.201
2599	900.000	0.000	900.001	0.067	4.766	1772060325.499
2600	900.000	0.024	900.001	0.031	0.568	1772060325.806
2601	900.000	0.007	899.999	0.093	0.149	1772060326.060
2602	900.000	0.010	900.001	0.079	4.727	1772060326.306
2603	900.000	0.041	899.998	0.040	1.038	1772060326.586
2604	900.000	0.017	899.998	0.108	0.254	1772060326.846
2605	900.000	0.004	900.003	0.039	5.194	1772060327.158
2606	900.000	0.006	900.001	0.008	4.088	1772060327.459
2607	900.000	0.024	900.002	0.066	0.748	1772060327.783
2608	900.000	-0.028	900.000	0.073	5.272	1772060328.077
2609	900.000	0.027	900.003	0.093	1.279	1772060328.337
2610	900.000	-0.023	900.003	0.051	6.045	1772060328.656
2611	900.000	0.013	899.999	0.032	4.407	1772060328.963
2612	900.000	0.035	900.003	0.088	0.526	1772060329.268
2613	900.000	-0.020	900.003	0.075	5.538	1772060329.573
2614	900.000	0.014	900.002	0.036	6.233	1772060329.884
2615	900.000	0.011	900.003	0.082	0.782	1772060330.149
2616	900.000	-0.028	899.999	0.062	5.542	1772060330.446
2617	900.000	-0.004	899.999	0.063	0.770	1772060330.761
2618	900.000	0.022	899.998	0.075	0.296	1772060331.013
2619	900.000	-0.010	900.002	0.066	4.505	1772060331.266
2620	900.000	0.014	900.002	0.029	5.620	1772060331.535
2621	900.000	0.012	900.000	0.068	0.428	1772060331.803
2622	900.000	-0.006	900.004	0.068	5.232	1772060332.107
2623	900.000	0.011	900.001	0.023	0.183	1772060332.427
2624	900.000	0.037	900.001	0.103	0.444	1772060332.711
2625	900.000	-0.015	899.999	0.134	5.456	1772060332.973
2626	900.000	-0.013	899.997	0.106	0.793	1772060333.202
2627	900.000	-0.049	899.998	0.114	1.223	1772060333.485
2628	900.000	-0.006	900.002	0.069	4.600	1772060333.804
2629	900.000	0.005	899.997	0.083	0.850	1772060334.088
2630	900.000	-0.034	899.999	0.087	0.185	1772060334.423
2631	900.000	-0.052	899.997	0.079	5.994	1772060334.744
2632	900.000	0.011	899.998	0.077	0.754	1772060335.045
2633	900.000	0.022	899.998	0.018	0.277	1772060335.371
2634	900.000	0.023	900.004	0.033	5.501	1772060335.650
2635	900.000	-0.018	900.004	0.138	0.724	1772060335.912
2636	900.000	-0.008	900.000	0.084	5.448	1772060336.237
2637	900.000	-0.010	900.000	0.007	5.575	1772060336.551
2638	900.000	0.000	899.998	0.048	1.001	1772060336.858
2639	900.000	-0.013	899.999	0.046	4.556	1772060337.158
2640	900.000	-0.016	900.003	0.023	1.661	1772060337.398
2641	900.000	-0.005	900.003	0.106	0.228	1772060337.686
2642	900.000	0.008	899.998	0.110	5.194	1772060337.990
2643	900.000	-0.004	899.999	0.054	5.687	1772060338.285
2644	900.000	0.002	899.999	0.035	0.186	1772060338.605
2645	900.000	0.010	900.001	0.078	4.095	1772060338.926
2646	900.000	-0.013	900.004	0.130	0.710	1772060339.220
2647	900.000	0.019	900.000	0.042	6.104	1772060339.537
2648	900.000	0.010	900.000	0.041	3.697	1772060339.840
2649	900.000	-0.015	900.003	0.063	0.748	1772060340.146
2650	900.000	-0.005	900.000	0.019	4.862	1772060340.441
2651	900.000	0.009	900.001	0.015	3.787	1772060340.691
2652	900.000	-0.019	900.003	0.110	0.540	1772060340.998
2653	900.000	0.010	900.001	0.076	4.286	1772060341.324
2654	900.000	0.001	899.998	0.076	0.556	1772060341.626
2655	900.000	-0.010	900.003	0.042	6.231	1772060341.919
2656	900.000	-0.001	900.000	0.064	5.328	1772060342.203
2657	900.000	-0.001	899.998	0.075	0.930	1772060342.510
2658	900.000	-0.026	899.999	0.096	0.061	1772060342.841
2659	900.000	0.044	899.999	0.030	3.888	1772060343.112
2660	900.000	-0.016	900.000	0.052	0.032	1772060343.357
2661	900.000	-0.018	900.000	0.045	5.896	1772060343.661
2662	900.000	0.020	900.002	0.027	5.708	1772060344.010
2663	900.000	0.009	899.998	0.107	0.753	1772060344.313
2664	900.000	0.002	900.004	0.054	5.491	1772060344.621
2665	900.000	-0.003	900.002	0.039	1.298	1772060344.927
2666	900.000	-0.013	900.000	0.046	0.259	1772060345.239
2667	900.000	0.013	900.000	0.051	4.934	1772060345.556
2668	900.000	0.009	900.000	0.132	0.604	1772060345.885
2669	900.000	0.022	900.001	0.039	6.023	1772060346.199
2670	900.000	-0.009	900.002	0.098	3.959	1772060346.503
2671	900.000	-0.023	900.002	0.078	0.975	1772060346.822
2672	900.000	-0.024	900.001	0.070	5.029	1772060347.129
2673	900.000	-0.002	900.002	0.061	0.776	1772060347.436
2674	900.000	-0.035	900.001	0.077	0.317	1772060347.735
2675	900.000	-0.002	899.998	0.115	4.623	1772060347.975
2676	900.000	-0.026	899.997	0.021	2.367	1772060348.251
2677	900.000	-0.012	899.998	0.072	0.418	1772060348.539
2678	900.000	-0.027	899.997	0.022	5.549	1772060348.814
2679	900.000	0.020	900.000	0.116	0.663	1772060349.128
2680	900.000	0.003	900.002	0.077	0.489	1772060349.419
2681	900.000	-0.004	900.000	0.028	3.683	1772060349.743
2682	900.000	-0.007	899.999	0.042	1.174	1772060350.057
2683	900.000	0.012	899.996	0.061	0.927	1772060350.289
2684	900.000	-0.016	900.001	0.012	2.480	1772060350.567
2685	900.000	-0.008	899.998	0.064	1.401	1772060350.862
2686	900.000	-0.025	900.003	0.026	3.789	1772060351.120
2687	900.000	-0.046	900.002	0.051	4.599	1772060351.433
2688	900.000	-0.041	899.998	0.084	0.632	1772060351.760
2689	900.000	-0.010	899.998	0.052	0.700	1772060352.058
2690	900.000	0.006	900.002	0.061	4.827	1772060352.365
2691	900.000	0.003	900.003	0.069	1.015	1772060352.688
2692	900.000	0.002	900.002	0.062	0.643	1772060352.988
2693	900.000	-0.023	899.997	0.057	5.285	1772060353.322
2694	900.000	0.009	900.002	0.065	1.308	1772060353.608
2695	900.000	-0.025	900.001	0.031	3.577	1772060353.924
2696	900.000	-0.022	899.999	0.105	0.909	1772060354.235
2697	900.000	-0.031	900.001	0.067	0.455	1772060354.544
2698	900.000	0.009	899.998	0.099	4.332	1772060354.869
2699	900.000	0.035	900.001	0.035	1.549	1772060355.183
2700	900.000	-0.008	900.000	0.075	4.352	1772060355.495
2701	900.000	-0.006	899.998	0.030	0.719	1772060355.799
2702	900.000	-0.025	900.000	0.161	0.336	1772060356.134
2703	900.000	-0.007	900.000	0.075	5.244	1772060356.421
2704	900.000	-0.008	900.003	0.063	0.834	1772060356.729
2705	900.000	-0.003	900.004	0.113	0.564	1772060357.004
2706	900.000	-0.011	900.001	0.034	4.214	1772060357.309
2707	900.000	0.056	899.999	0.049	0.745	1772060357.614
2708	900.000	0.014	900.000	0.023	5.397	1772060357.956
2709	900.000	-0.017	900.001	0.041	4.117	1772060358.262
2710	900.000	-0.026	899.999	0.164	0.514	1772060358.566
2711	900.000	0.016	900.000	0.027	5.083	1772060358.866
2712	900.000	-0.002	900.002	0.047	0.064	1772060359.180
2713	900.000	-0.013	899.998	0.083	0.462	1772060359.508
2714	900.000	0.010	899.998	0.023	5.949	1772060359.807
2715	900.000	0.044	900.000	0.070	0.570	1772060360.097
2716	900.000	0.003	900.000	0.071	6.214	1772060360.361
2717	900.000	-0.014	900.003	0.030	4.480	1772060360.675
2718	900.000	0.000	900.002	0.065	1.596	1772060360.990
2719	900.000	-0.033	899.997	0.086	6.104	1772060361.286
2720	900.000	0.014	899.997	0.098	4.689	1772060361.564
2721	900.000	-0.011	899.999	0.068	0.793	1772060361.876
2722	900.000	-0.018	900.003	0.052	5.822	1772060362.186
2723	900.000	-0.004	900.001	0.028	0.912	1772060362.490
2724	900.000	-0.006	900.003	0.119	0.841	1772060362.812
2725	900.000	0.017	900.005	0.069	4.846	1772060363.119
2726	900.000	-0.003	899.998	0.064	0.714	1772060363.444
2727	900.000	-0.009	899.999	0.043	0.710	1772060363.729
2728	900.000	0.014	899.999	0.082	4.129	1772060363.989
2729	900.000	0.003	899.998	0.076	0.710	1772060364.250
2730	900.000	0.026	900.002	0.112	6.132	1772060364.553
2731	900.000	-0.001	899.999	0.082	4.700	1772060364.870
2732	900.000	0.024	900.000	0.114	0.733	1772060365.158
2733	900.000	-0.022	899.998	0.073	5.842	1772060365.434
2734	900.000	-0.021	899.997	0.032	4.840	1772060365.750
2735	900.000	0.006	900.003	0.071	0.647	1772060366.046
2736	900.000	-0.034	900.005	0.065	5.201	1772060366.361
2737	900.000	0.011	900.000	0.024	0.500	1772060366.695
2738	900.000	0.018	899.997	0.087	0.786	1772060366.987
2739	900.000	0.013	900.001	0.051	4.793	1772060367.247
2740	900.000	-0.019	899.997	0.010	1.074	1772060367.559
2741	900.000	-0.009	899.999	0.035	1.490	1772060367.815
2742	900.000	-0.025	900.004	0.046	5.215	1772060368.137
2743	900.000	-0.013	899.999	0.082	6.031	1772060368.425
2744	900.000	0.019	900.000	0.053	0.357	1772060368.725
2745	900.000	-0.002	900.002	0.075	5.702	1772060369.031
2746	900.000	-0.006	900.004	0.063	0.682	1772060369.298
2747	900.000	0.020	899.998	0.086	0.600	1772060369.554
2748	900.000	0.010	900.002	0.058	3.506	1772060369.792
2749	900.000	-0.046	900.004	0.047	0.481	1772060370.068
2750	900.000	0.009	900.001	0.079	0.238	1772060370.378
2751	900.000	0.000	899.996	0.061	4.364	1772060370.681
2752	900.000	0.012	899.998	0.036	1.727	1772060370.998
2753	900.000	-0.001	900.000	0.038	6.210	1772060371.293
2754	900.000	-0.005	900.000	0.045	5.410	1772060371.579
2755	900.000	-0.029	900.003	0.059	1.055	1772060371.879
2756	900.000	0.001	899.999	0.048	0.926	1772060372.162
2757	900.000	-0.004	900.000	0.032	4.951	1772060372.421
2758	900.000	0.037	900.002	0.059	1.119	1772060372.694
2759	900.000	-0.028	900.000	0.024	0.628	1772060372.990
2760	900.000	-0.012	899.999	0.096	4.847	1772060373.246
2761	900.000	0.012	899.999	0.073	1.124	1772060373.543
2762	900.000	0.013	900.001	0.044	5.711	1772060373.891
2763	900.000	-0.008	899.999	0.021	5.018	1772060374.196
2764	900.000	-0.001	899.996	0.024	0.596	1772060374.505
2765	900.000	-0.000	899.997	0.049	3.982	1772060374.800
2766	900.000	-0.020	899.998	0.035	0.772	1772060375.092
2767	900.000	0.031	899.999	0.081	0.278	1772060375.374
2768	900.000	0.014	899.998	0.094	5.115	1772060375.655
2769	900.000	-0.036	900.000	0.093	1.519	1772060375.927
2770	900.000	-0.020	899.999	0.068	0.656	1772060376.170
2771	900.000	-0.016	900.002	0.060	4.618	1772060376.428
2772	900.000	0.005	899.999	0.054	1.092	1772060376.749
2773	900.000	-0.015	900.003	0.056	0.744	1772060377.040
2774	900.000	-0.018	900.002	0.040	4.107	1772060377.356
2775	900.000	-0.010	900.000	0.110	0.431	1772060377.625
2776	900.000	0.007	900.000	0.037	5.792	1772060377.913
2777	900.000	0.016	899.999	0.108	4.284	1772060378.177
2778	900.000	-0.007	900.001	0.041	0.593	1772060378.491
2779	900.000	0.010	900.001	0.089	0.541	1772060378.826
2780	900.000	0.007	899.998	0.050	5.664	1772060379.124
2781	900.000	-0.027	899.996	0.085	0.655	1772060379.437
2782	900.000	0.039	899.999	0.079	4.122	1772060379.738
2783	900.000	-0.004	899.999	0.033	5.014	1772060380.031
2784	900.000	-0.006	900.001	0.127	0.204	1772060380.309
2785	900.000	-0.019	900.001	0.047	4.801	1772060380.638
2786	900.000	0.008	900.001	0.070	1.519	1772060380.926
2787	900.000	0.032	900.001	0.028	0.796	1772060381.237
2788	900.000	0.017	900.001	0.099	5.169	1772060381.510
2789	900.000	-0.005	899.996	0.069	0.500	1772060381.783
2790	900.000	-0.007	900.000	0.075	0.409	1772060382.094
2791	900.000	0.001	899.998	0.066	4.591	1772060382.415
2792	900.000	-0.027	900.002	0.057	1.102	1772060382.715
2793	900.000	-0.015	899.999	0.029	6.156	1772060383.037
2794	900.000	0.030	900.002	0.020	5.348	1772060383.349
2795	900.000	0.016	899.999	0.117	1.468	1772060383.666
2796	900.000	0.004	899.996	0.045	3.592	1772060383.957
2797	900.000	0.004	900.002	0.019	4.479	1772060384.262
2798	900.000	0.008	900.002	0.096	0.324	1772060384.510
2799	900.000	0.022	899.997	0.058	5.236	1772060384.788
2800	900.000	0.034	900.001	0.033	4.326	1772060385.083
2801	900.000	0.001	899.999	0.086	0.415	1772060385.394
2802	900.000	-0.009	900.002	0.127	4.565	1772060385.704
2803	900.000	0.026	899.998	0.110	0.245	1772060386.026
2804	900.000	0.024	899.996	0.049	3.774	1772060386.345
2805	900.000	-0.013	899.996	0.066	6.028	1772060386.664
2806	900.000	0.018	899.996	0.061	0.682	1772060386.947
2807	900.000	0.036	899.997	0.079	3.823	1772060387.274
2808	900.000	-0.014	900.000	0.081	1.213	1772060387.536
2809	900.000	-0.019	900.000	0.147	0.805	1772060387.821
2810	900.000	0.021	900.003	0.041	5.174	1772060388.093
2811	900.000	0.006	899.999	0.025	1.019	1772060388.401
2812	900.000	0.005	900.001	0.096	0.525	1772060388.696
2813	900.000	-0.013	900.002	0.109	4.570	1772060388.963
2814	900.000	0.007	899.999	0.069	1.356	1772060389.294
2815	900.000	0.029	899.997	0.032	0.629	1772060389.587
2816	900.000	-0.011	899.999	0.037	4.703	1772060389.913
2817	900.000	-0.016	899.998	0.118	0.915	1772060390.221
2818	900.000	0.006	900.000	0.070	5.593	1772060390.522
2819	900.000	-0.001	900.004	0.011	0.021	1772060390.778
2820	900.000	0.008	899.999	0.105	0.679	1772060391.105
2821	900.000	0.021	900.000	0.102	4.390	1772060391.398
2822	900.000	-0.008	900.001	0.048	1.210	1772060391.718
2823	900.000	0.007	900.003	0.098	0.268	1772060392.006
2824	900.000	-0.004	900.000	0.057	4.546	1772060392.284
2825	900.000	-0.009	900.002	0.054	0.592	1772060392.632
2826	900.000	-0.002	899.999	0.106	0.052	1772060392.893
2827	900.000	0.012	900.001	0.023	0.132	1772060393.206
2828	900.000	0.009	900.002	0.083	1.370	1772060393.545
2829	900.000	0.029	900.000	0.021	5.827	1772060393.836
2830	900.000	-0.005	900.002	0.023	5.576	1772060394.127
2831	900.000	0.004	899.998	0.025	1.028	1772060394.450
2832	900.000	0.021	900.000	0.057	5.040	1772060394.711
2833	900.000	-0.003	900.001	0.066	0.361	1772060394.991
2834	900.000	-0.004	900.000	0.079	0.591	1772060395.270
2835	900.000	-0.006	899.999	0.009	4.017	1772060395.516
2836	900.000	0.014	900.000	0.036	2.444	1772060395.795
2837	900.000	0.009	900.001	0.083	0.367	1772060396.084
2838	900.000	0.039	899.998	0.057	5.388	1772060396.387
2839	900.000	0.002	899.998	0.020	4.510	1772060396.661
2840	900.000	-0.034	899.998	0.055	0.011	1772060396.958
2841	900.000	0.024	899.999	0.110	0.016	1772060397.259
2842	900.000	0.017	900.001	0.047	0.330	1772060397.533
2843	900.000	0.000	899.999	0.080	0.492	1772060397.826
2844	900.000	-0.005	900.002	0.059	3.851	1772060398.099
2845	900.000	0.011	900.000	0.010	1.934	1772060398.406
2846	900.000	0.002	900.000	0.114	0.153	1772060398.710
2847	900.000	-0.018	899.998	0.060	5.611	1772060399.002
2848	900.000	-0.042	900.001	0.039	1.510	1772060399.273
2849	900.000	0.017	899.995	0.024	6.187	1772060399.573
2850	900.000	-0.008	899.998	0.097	4.677	1772060399.860
2851	900.000	0.008	900.001	0.149	0.683	1772060400.148
2852	900.000	-0.023	899.997	0.054	5.436	1772060400.395
2853	900.000	-0.000	899.997	0.034	0.256	1772060400.665
2854	900.000	-0.018	899.996	0.129	0.490	1772060400.912
2855	900.000	-0.003	900.000	0.054	0.382	1772060401.215
2856	900.000	0.010	900.001	0.033	5.329	1772060401.470
2857	900.000	0.015	899.999	0.057	0.753	1772060401.783
2858	900.000	0.013	900.002	0.040	5.319	1772060402.043
2859	900.000	-0.006	900.000	0.021	4.446	1772060402.339
2860	900.000	0.011	899.998	0.085	0.636	1772060402.686
2861	900.000	-0.008	900.004	0.047	5.977	1772060402.966
2862	900.000	-0.007	899.996	0.034	4.020	1772060403.203
2863	900.000	0.006	900.000	0.086	0.656	1772060403.485
2864	900.000	0.049	900.001	0.043	6.024	1772060403.789
2865	900.000	-0.011	900.002	0.014	6.252	1772060404.096
2866	900.000	0.031	900.002	0.113	0.618	1772060404.408
2867	900.000	-0.002	900.002	0.035	1.331	1772060404.671
2868	900.000	0.006	899.999	0.010	1.237	1772060404.997
2869	900.000	0.026	900.001	0.114	0.685	1772060405.295
2870	900.000	-0.031	900.002	0.051	5.568	1772060405.610
2871	900.000	-0.007	900.003	0.058	1.512	1772060405.916
2872	900.000	-0.022	900.001	0.033	0.114	1772060406.238
2873	900.000	-0.006	899.997	0.029	0.350	1772060406.515
2874	900.000	0.011	900.000	0.106	0.597	1772060406.798
2875	900.000	0.004	900.002	0.115	6.112	1772060407.102
2876	900.000	0.021	899.997	0.065	4.608	1772060407.392
2877	900.000	-0.000	900.001	0.122	0.699	1772060407.676
2878	900.000	0.004	900.002	0.031	0.150	1772060407.980
2879	900.000	0.007	900.000	0.009	2.809	1772060408.306
2880	900.000	-0.020	899.997	0.119	0.577	1772060408.616
2881	900.000	0.011	900.000	0.087	6.082	1772060408.922
2882	900.000	0.007	900.004	0.042	1.211	1772060409.225
2883	900.000	-0.013	900.002	0.092	6.048	1772060409.481
2884	900.000	-0.011	900.000	0.068	5.064	1772060409.798
2885	900.000	0.013	900.003	0.050	0.906	1772060410.106
2886	900.000	-0.007	900.003	0.022	5.827	1772060410.422
2887	900.000	0.004	900.000	0.036	5.494	1772060410.710
2888	900.000	-0.019	900.000	0.094	0.602	1772060410.974
2889	900.000	-0.010	900.004	0.021	4.233	1772060411.220
2890	900.000	0.007	899.999	0.088	5.118	1772060411.500
2891	900.000	0.006	900.002	0.127	0.698	1772060411.793
2892	900.000	0.005	900.003	0.058	0.189	1772060412.109
2893	900.000	-0.021	899.999	0.029	3.355	1772060412.409
2894	900.000	-0.018	899.999	0.097	0.495	1772060412.645
2895	900.000	-0.007	899.998	0.060	4.181	1772060412.905
2896	900.000	0.019	900.001	0.032	0.550	1772060413.149
2897	900.000	0.028	899.999	0.063	0.321	1772060413.478
2898	900.000	0.009	900.002	0.031	5.062	1772060413.814
2899	900.000	-0.009	900.001	0.075	1.442	1772060414.115
2900	900.000	-0.009	900.002	0.104	0.430	1772060414.401
2901	900.000	-0.002	899.999	0.078	6.033	1772060414.725
2902	900.000	0.028	900.001	0.146	0.617	1772060415.037
2903	900.000	-0.021	900.000	0.030	5.588	1772060415.337
2904	900.000	0.001	899.999	0.070	4.751	1772060415.588
2905	900.000	0.010	899.996	0.075	0.339	1772060415.839
2906	900.000	0.008	899.998	0.059	0.421	1772060416.124
2907	900.000	-0.005	900.003	0.046	3.925	1772060416.425
2908	900.000	0.007	899.999	0.089	0.377	1772060416.752
2909	900.000	0.032	899.999	0.104	0.593	1772060417.054
2910	900.000	-0.008	899.999	0.094	5.922	1772060417.342
2911	900.000	-0.039	899.998	0.115	0.238	1772060417.614
2912	900.000	0.021	899.999	0.042	6.257	1772060417.918
2913	900.000	0.006	899.998	0.007	3.377	1772060418.214
2914	900.000	-0.005	900.000	0.056	0.202	1772060418.551
2915	900.000	-0.008	900.002	0.057	5.053	1772060418.852
2916	900.000	-0.013	900.001	0.011	0.106	1772060419.154
2917	900.000	-0.002	899.998	0.107	0.364	1772060419.399
2918	900.000	-0.033	899.998	0.073	5.249	1772060419.719
2919	900.000	-0.031	900.000	0.114	0.812	1772060420.045
2920	900.000	-0.024	900.001	0.088	0.422	1772060420.350
2921	900.000	-0.005	899.996	0.114	3.787	1772060420.595
2922	900.000	0.003	900.004	0.050	1.829	1772060420.919
2923	900.000	-0.017	900.001	0.024	0.338	1772060421.203
2924	900.000	0.020	900.002	0.056	4.292	1772060421.483
2925	900.000	0.011	900.001	0.042	1.622	1772060421.781
2926	900.000	0.032	900.003	0.024	0.764	1772060422.035
2927	900.000	-0.015	900.001	0.054	4.110	1772060422.298
2928	900.000	0.001	900.000	0.077	0.589	1772060422.601
2929	900.000	-0.025	900.001	0.011	5.492	1772060422.912
2930	900.000	0.009	900.006	0.022	5.133	1772060423.233
2931	900.000	-0.011	900.000	0.057	0.769	1772060423.539
2932	900.000	-0.004	900.000	0.064	5.661	1772060423.847
2933	900.000	-0.002	900.000	0.074	0.679	1772060424.145
2934	900.000	-0.000	900.002	0.045	0.904	1772060424.401
2935	900.000	0.006	899.997	0.087	3.674	1772060424.678
2936	900.000	-0.001	900.000	0.040	0.406	1772060424.981
2937	900.000	0.033	899.999	0.138	0.538	1772060425.279
2938	900.000	0.003	900.003	0.055	1.348	1772060425.534
2939	900.000	0.008	900.001	0.047	2.310	1772060425.851
2940	900.000	-0.001	899.999	0.044	1.119	1772060426.171
2941	900.000	-0.009	900.002	0.063	4.670	1772060426.496
2942	900.000	-0.019	900.004	0.113	0.603	1772060426.767
2943	900.000	-0.003	899.998	0.017	0.542	1772060427.041
2944	900.000	0.012	899.998	0.080	3.893	1772060427.350
2945	900.000	0.017	900.000	0.124	1.030	1772060427.647
2946	900.000	-0.008	900.001	0.059	5.685	1772060427.972
2947	900.000	0.024	900.003	0.039	0.822	1772060428.299
2948	900.000	-0.017	899.997	0.090	0.484	1772060428.610
2949	900.000	-0.013	900.000	0.056	4.625	1772060428.930
2950	900.000	0.006	899.997	0.076	1.003	1772060429.217
2951	900.000	-0.005	900.002	0.059	5.804	1772060429.553
2952	900.000	0.016	900.002	0.090	5.089	1772060429.845
2953	900.000	-0.030	900.000	0.050	1.687	1772060430.090
2954	900.000	-0.035	899.997	0.040	0.692	1772060430.443
2955	900.000	-0.014	900.001	0.059	5.682	1772060430.749
2956	900.000	0.001	900.000	0.120	0.661	1772060431.042
2957	900.000	-0.020	899.998	0.049	4.794	1772060431.341
2958	900.000	0.009	900.001	0.062	0.856	1772060431.657
2959	900.000	-0.016	900.001	0.125	0.746	1772060431.906
2960	900.000	-0.009	900.001	0.040	4.131	1772060432.192
2961	900.000	-0.000	900.002	0.020	4.535	1772060432.477
2962	900.000	0.024	900.002	0.122	0.178	1772060432.799
2963	900.000	0.021	900.001	0.078	5.359	1772060433.087
2964	900.000	-0.014	900.000	0.159	0.518	1772060433.361
2965	900.000	-0.043	899.999	0.162	0.207	1772060433.665
2966	900.000	0.031	899.997	0.029	5.352	1772060433.961
2967	900.000	0.011	899.999	0.083	1.652	1772060434.276
2968	900.000	0.005	900.005	0.051	5.213	1772060434.616
2969	900.000	0.031	900.000	0.041	0.713	1772060434.924
2970	900.000	0.003	899.997	0.091	0.732	1772060435.218
2971	900.000	-0.022	900.003	0.023	5.173	1772060435.546
2972	900.000	-0.013	900.002	0.034	0.523	1772060435.834
2973	900.000	-0.007	900.000	0.064	6.093	1772060436.107
2974	900.000	-0.020	900.000	0.032	5.767	1772060436.425
2975	900.000	-0.029	899.998	0.098	0.233	1772060436.715
2976	900.000	-0.003	899.996	0.043	5.870	1772060437.005
2977	900.000	-0.007	900.001	0.042	4.714	1772060437.330
2978	900.000	0.002	900.001	0.118	0.699	1772060437.614
2979	900.000	0.018	900.000	0.052	6.271	1772060437.929
2980	900.000	0.004	900.000	0.091	0.122	1772060438.172
2981	900.000	-0.007	900.000	0.096	0.448	1772060438.474
2982	900.000	0.004	900.003	0.040	0.020	1772060438.745
2983	900.000	0.017	899.997	0.031	1.000	1772060439.025
2984	900.000	-0.005	900.000	0.099	1.170	1772060439.298
2985	900.000	-0.013	900.000	0.055	3.912	1772060439.607
2986	900.000	0.020	900.000	0.078	0.438	1772060439.866
2987	900.000	-0.022	900.003	0.055	1.305	1772060440.125
2988	900.000	0.018	900.000	0.086	4.530	1772060440.433
2989	900.000	0.001	900.000	0.064	0.658	1772060440.739
2990	900.000	0.004	899.999	0.115	0.105	1772060441.003
2991	900.000	-0.013	900.002	0.049	4.693	1772060441.290
2992	900.000	0.030	900.002	0.030	0.397	1772060441.561
2993	900.000	0.011	900.004	0.067	0.960	1772060441.888
2994	900.000	-0.007	899.999	0.054	4.585	1772060442.176
2995	900.000	-0.006	899.999	0.164	0.630	1772060442.502
2996	900.000	0.009	900.000	0.013	1.465	1772060442.812
2997	900.000	-0.021	900.004	0.084	5.276	1772060443.136
2998	900.000	-0.017	900.000	0.036	1.172	1772060443.469
2999	900.000	-0.008	900.000	0.043	3.955	1772060443.755
3000	900.000	-0.001	899.999	0.071	0.888	1772060444.062
3001	900.000	-0.009	899.997	0.135	0.446	1772060444.365
3002	900.000	0.024	900.001	0.084	5.181	1772060444.600
3003	900.000	-0.042	900.000	0.039	0.683	1772060444.876
3004	900.000	0.016	900.003	0.088	0.098	1772060445.184
3005	900.000	-0.022	899.997	0.023	3.672	1772060445.498
3006	900.000	0.015	900.000	0.082	0.477	1772060445.798
3007	900.000	-0.019	900.000	0.028	5.354	1772060446.118
3008	900.000	0.015	899.999	0.026	3.978	1772060446.429
3009	900.000	-0.027	899.999	0.095	0.512	1772060446.693
3010	900.000	0.016	900.002	0.032	0.195	1772060447.006
3011	900.000	0.014	900.001	0.092	0.919	1772060447.313
3012	900.000	-0.033	900.002	0.137	0.104	1772060447.585
3013	900.000	-0.006	899.998	0.040	3.858	1772060447.870
3014	900.000	-0.004	900.002	0.066	0.626	1772060448.184
3015	900.000	-0.033	900.000	0.068	6.051	1772060448.477
3016	900.000	-0.015	900.000	0.054	5.613	1772060448.744
3017	900.000	-0.004	900.002	0.074	0.966	1772060449.045
3018	900.000	-0.017	900.002	0.064	0.623	1772060449.337
3019	900.000	0.001	899.999	0.030	0.859	1772060449.622
3020	900.000	0.002	900.001	0.097	0.997	1772060449.919
3021	900.000	0.009	900.000	0.084	5.892	1772060450.169
3022	900.000	-0.001	900.003	0.091	4.767	1772060450.445
3023	900.000	0.031	899.999	0.068	0.370	1772060450.727
3024	900.000	-0.018	900.000	0.069	6.177	1772060451.036
3025	900.000	0.008	900.002	0.081	4.580	1772060451.312
3026	900.000	0.027	899.998	0.127	0.797	1772060451.600
3027	900.000	0.031	900.001	0.074	6.129	1772060451.874
3028	900.000	-0.032	900.000	0.036	4.822	1772060452.209
3029	900.000	0.003	900.000	0.070	0.749	1772060452.469
3030	900.000	0.038	899.999	0.024	5.487	1772060452.754
3031	900.000	0.006	900.001	0.052	3.423	1772060453.055
3032	900.000	0.013	900.000	0.123	0.724	1772060453.344
3033	900.000	0.001	900.003	0.051	6.131	1772060453.628
3034	900.000	0.002	899.998	0.066	0.585	1772060453.940
3035	900.000	-0.002	899.999	0.055	0.737	1772060454.246
3036	900.000	-0.021	899.999	0.045	4.692	1772060454.532
3037	900.000	-0.020	900.000	0.051	5.937	1772060454.817
3038	900.000	0.019	900.001	0.091	0.658	1772060455.112
3039	900.000	0.025	900.000	0.089	4.894	1772060455.370
3040	900.000	-0.013	899.999	0.039	4.214	1772060455.699
3041	900.000	0.049	900.001	0.140	0.708	1772060455.983
3042	900.000	-0.007	899.999	0.010	0.579	1772060456.242
3043	900.000	-0.015	899.999	0.083	0.807	1772060456.484
3044	900.000	0.035	899.998	0.059	0.652	1772060456.809
3045	900.000	0.018	900.000	0.057	5.483	1772060457.122
3046	900.000	0.025	900.002	0.050	1.209	1772060457.461
3047	900.000	0.007	899.999	0.010	4.089	1772060457.765
3048	900.000	0.001	899.996	0.058	0.403	1772060458.024
3049	900.000	-0.001	900.004	0.107	1.703	1772060458.299
3050	900.000	0.012	900.003	0.018	5.085	1772060458.557
3051	900.000	-0.007	899.999	0.077	4.869	1772060458.814
3052	900.000	0.017	900.001	0.077	1.902	1772060459.121
3053	900.000	0.018	899.998	0.028	6.231	1772060459.438
3054	900.000	-0.004	900.004	0.069	4.030	1772060459.752
3055	900.000	0.005	900.001	0.095	0.514	1772060460.070
3056	900.000	0.006	899.998	0.063	4.670	1772060460.366
3057	900.000	0.014	900.000	0.023	6.073	1772060460.659
3058	900.000	-0.008	900.001	0.121	0.360	1772060460.944
3059	900.000	0.011	899.997	0.054	3.415	1772060461.243
3060	900.000	-0.011	899.996	0.068	0.753	1772060461.537
3061	900.000	-0.014	900.001	0.061	6.144	1772060461.808
3062	900.000	-0.028	900.004	0.080	5.048	1772060462.119
3063	900.000	0.006	900.000	0.106	0.864	1772060462.438
3064	900.000	0.001	900.004	0.051	5.918	1772060462.738
3065	900.000	-0.010	900.002	0.034	4.886	1772060463.056
3066	900.000	0.018	899.999	0.104	0.796	1772060463.373
3067	900.000	0.024	899.999	0.017	2.327	1772060463.706
3068	900.000	-0.003	900.001	0.022	3.312	1772060463.989
3069	900.000	0.011	899.995	0.181	0.609	1772060464.261
3070	900.000	-0.026	900.000	0.076	5.241	1772060464.580
3071	900.000	0.019	899.998	0.040	0.081	1772060464.856
3072	900.000	-0.002	900.000	0.043	0.100	1772060465.135
3073	900.000	-0.002	900.002	0.055	5.615	1772060465.377
3074	900.000	0.021	900.000	0.063	1.970	1772060465.714
3075	900.000	-0.007	899.998	0.050	0.195	1772060466.027
3076	900.000	-0.033	900.001	0.022	5.102	1772060466.332
3077	900.000	-0.009	900.001	0.072	1.145	1772060466.628
3078	900.000	0.017	900.001	0.062	5.677	1772060466.961
3079	900.000	0.009	900.001	0.080	0.557	1772060467.263
3080	900.000	0.010	899.998	0.082	0.636	1772060467.576
3081	900.000	0.003	900.001	0.049	5.201	1772060467.896
3082	900.000	0.013	899.999	0.047	2.300	1772060468.182
3083	900.000	-0.013	900.001	0.055	0.858	1772060468.453
3084	900.000	0.012	900.002	0.062	4.183	1772060468.756
3085	900.000	0.016	900.000	0.066	2.413	1772060469.059
3086	900.000	-0.009	900.000	0.104	0.992	1772060469.372
3087	900.000	0.024	900.001	0.038	4.584	1772060469.647
3088	900.000	-0.010	899.999	0.040	1.919	1772060469.938
3089	900.000	-0.019	900.001	0.037	6.011	1772060470.269
3090	900.000	-0.004	900.001	0.029	5.330	1772060470.580
3091	900.000	0.015	899.996	0.076	1.274	1772060470.882
3092	900.000	-0.044	899.997	0.055	0.189	1772060471.194
3093	900.000	-0.039	899.999	0.053	0.828	1772060471.493
3094	900.000	-0.005	899.999	0.083	1.669	1772060471.784
3095	900.000	-0.001	899.999	0.087	5.168	1772060472.084
3096	900.000	-0.009	899.997	0.034	0.446	1772060472.366
3097	900.000	-0.015	900.002	0.073	0.316	1772060472.641
3098	900.000	0.010	900.000	0.097	5.138	1772060472.940
3099	900.000	0.008	900.000	0.069	2.395	1772060473.210
3100	900.000	-0.002	899.997	0.035	0.317	1772060473.545
3101	900.000	-0.015	899.999	0.023	1.115	1772060473.854
3102	900.000	-0.007	900.003	0.111	0.859	1772060474.169
3103	900.000	-0.004	899.996	0.039	0.515	1772060474.459
3104	900.000	-0.011	900.001	0.062	1.339	1772060474.788
3105	900.000	0.010	900.001	0.096	1.059	1772060475.090
3106	900.000	-0.005	900.001	0.076	5.221	1772060475.392
3107	900.000	0.011	900.001	0.077	0.249	1772060475.695
3108	900.000	0.002	899.999	0.063	0.176	1772060476.034
3109	900.000	0.013	899.999	0.043	4.694	1772060476.339
3110	900.000	-0.003	900.001	0.099	0.797	1772060476.655
3111	900.000	0.028	899.997	0.105	5.281	1772060476.966
3112	900.000	-0.015	900.000	0.069	5.269	1772060477.255
3113	900.000	-0.003	900.000	0.128	0.442	1772060477.583
3114	900.000	0.048	900.000	0.060	4.725	1772060477.842
3115	900.000	-0.026	900.001	0.032	4.490	1772060478.132
3116	900.000	0.017	900.002	0.051	0.973	1772060478.413
3117	900.000	0.008	900.003	0.111	4.260	1772060478.719
3118	900.000	-0.021	899.998	0.022	6.088	1772060479.028
3119	900.000	-0.001	899.997	0.055	6.246	1772060479.351
3120	900.000	0.003	899.999	0.040	5.346	1772060479.657
3121	900.000	-0.021	900.000	0.092	0.580	1772060479.966
3122	900.000	-0.013	900.001	0.051	4.859	1772060480.304
3123	900.000	-0.027	899.999	0.018	0.795	1772060480.580
3124	900.000	0.002	899.999	0.080	0.971	1772060480.899
3125	900.000	0.004	899.999	0.134	4.385	1772060481.155
3126	900.000	0.016	900.001	0.032	0.548	1772060481.457
3127	900.000	0.005	900.003	0.066	0.382	1772060481.762
3128	900.000	-0.028	899.998	0.081	5.544	1772060482.095
3129	900.000	0.020	900.001	0.035	4.889	1772060482.414
3130	900.000	0.011	899.998	0.166	0.342	1772060482.705
3131	900.000	0.014	899.999	0.065	5.712	1772060482.974
3132	900.000	0.003	900.002	0.028	0.227	1772060483.283
3133	900.000	-0.031	899.997	0.084	0.923	1772060483.624
3134	900.000	-0.003	900.000	0.059	0.098	1772060483.914
3135	900.000	-0.010	899.998	0.032	2.606	1772060484.204
3136	900.000	0.015	900.000	0.055	6.139	1772060484.460
3137	900.000	-0.030	900.000	0.093	4.361	1772060484.764
3138	900.000	0.013	900.000	0.094	0.984	1772060485.084
3139	900.000	0.015	899.999	0.045	4.359	1772060485.417
3140	900.000	-0.002	899.999	0.049	4.297	1772060485.718
3141	900.000	0.038	899.999	0.100	0.858	1772060486.034
3142	900.000	0.041	900.002	0.027	0.079	1772060486.317
3143	900.000	-0.004	900.002	0.071	0.355	1772060486.586
3144	900.000	0.000	899.999	0.045	0.062	1772060486.905
3145	900.000	-0.000	900.001	0.112	4.358	1772060487.197
3146	900.000	0.024	900.003	0.064	0.770	1772060487.522
3147	900.000	0.024	900.001	0.132	0.755	1772060487.784
3148	900.000	0.011	899.999	0.048	4.559	1772060488.075
3149	900.000	0.036	900.002	0.065	3.128	1772060488.346
3150	900.000	0.011	899.998	0.087	0.266	1772060488.639
3151	900.000	0.008	900.000	0.082	4.119	1772060488.902
3152	900.000	0.015	900.000	0.090	0.385	1772060489.198
3153	900.000	-0.005	899.998	0.115	0.425	1772060489.448
3154	900.000	-0.016	899.996	0.072	4.208	1772060489.717
3155	900.000	-0.010	900.004	0.047	0.428	1772060490.000
3156	900.000	0.014	900.003	0.080	0.976	1772060490.300
3157	900.000	-0.005	899.999	0.102	5.057	1772060490.572
3158	900.000	-0.003	900.001	0.040	1.810	1772060490.851
3159	900.000	0.008	900.000	0.135	0.701	1772060491.144
3160	900.000	-0.003	899.999	0.023	5.789	1772060491.464
3161	900.000	0.001	900.000	0.071	0.732	1772060491.767
3162	900.000	-0.004	899.999	0.072	0.184	1772060492.033
3163	900.000	0.015	899.999	0.009	0.921	1772060492.358
3164	900.000	0.028	900.000	0.011	6.228	1772060492.653
3165	900.000	-0.012	900.002	0.110	1.051	1772060492.951
3166	900.000	0.016	899.998	0.023	3.356	1772060493.263
3167	900.000	0.015	900.005	0.086	1.002	1772060493.590
3168	900.000	0.016	900.000	0.020	0.578	1772060493.882
3169	900.000	-0.020	900.001	0.014	6.195	1772060494.149
3170	900.000	0.012	899.998	0.029	1.123	1772060494.451
3171	900.000	-0.002	899.997	0.054	4.094	1772060494.766
3172	900.000	-0.001	900.000	0.050	5.223	1772060495.080
3173	900.000	0.032	900.002	0.098	1.257	1772060495.381
3174	900.000	0.005	900.001	0.033	4.251	1772060495.702
3175	900.000	-0.022	900.002	0.058	0.678	1772060495.952
3176	900.000	0.027	900.002	0.103	0.253	1772060496.207
3177	900.000	-0.029	899.998	0.124	5.862	1772060496.539
3178	900.000	-0.021	899.999	0.011	0.339	1772060496.834
3179	900.000	0.011	900.001	0.064	0.009	1772060497.159
3180	900.000	-0.002	900.003	0.030	3.891	1772060497.442
3181	900.000	-0.003	900.004	0.026	3.818	1772060497.716
3182	900.000	-0.012	899.998	0.113	0.599	1772060498.032
3183	900.000	0.010	900.001	0.038	5.403	1772060498.335
3184	900.000	-0.008	899.999	0.080	0.717	1772060498.660
3185	900.000	0.036	900.001	0.041	2.756	1772060498.962
3186	900.000	-0.022	900.000	0.006	1.710	1772060499.286
3187	900.000	0.042	900.000	0.155	0.472	1772060499.579
3188	900.000	-0.025	899.998	0.023	0.746	1772060499.899
3189	900.000	-0.010	899.998	0.023	0.939	1772060500.213
3190	900.000	-0.007	900.001	0.084	0.030	1772060500.542
3191	900.000	-0.003	900.001	0.086	4.511	1772060500.844
3192	900.000	0.033	900.002	0.083	0.430	1772060501.149
3193	900.000	-0.021	900.001	0.132	0.127	1772060501.459
3194	900.000	0.008	900.000	0.123	5.480	1772060501.749
3195	900.000	0.008	899.999	0.048	6.214	1772060502.036
3196	900.000	-0.013	899.995	0.032	3.857	1772060502.334
3197	900.000	0.025	900.000	0.038	5.685	1772060502.677
3198	900.000	0.022	900.001	0.059	0.677	1772060502.971
3199	900.000	-0.027	899.999	0.015	3.526	1772060503.263
3200	900.000	-0.002	900.003	0.031	1.794	1772060503.522
3201	900.000	0.027	899.998	0.073	0.875	1772060503.834
3202	900.000	0.013	899.999	0.059	4.768	1772060504.153
3203	900.000	0.030	899.999	0.020	1.192	1772060504.479
3204	900.000	0.012	900.002	0.041	0.723	1772060504.766
3205	900.000	-0.017	899.998	0.033	5.087	1772060505.085
3206	900.000	-0.022	899.999	0.087	0.471	1772060505.377
3207	900.000	0.000	900.001	0.030	3.445	1772060505.633
3208	900.000	-0.031	900.000	0.089	4.210	1772060505.903
3209	900.000	-0.009	899.999	0.063	0.844	1772060506.182
3210	900.000	0.003	900.001	0.085	0.028	1772060506.497
3211	900.000	0.010	900.003	0.057	5.499	1772060506.799
3212	900.000	0.005	899.996	0.080	0.523	1772060507.109
3213	900.000	0.028	899.998	0.041	4.081	1772060507.404
3214	900.000	0.021	900.000	0.063	5.756	1772060507.739
3215	900.000	-0.000	899.997	0.104	0.890	1772060508.059
3216	900.000	-0.007	900.001	0.058	0.064	1772060508.381
3217	900.000	0.001	900.001	0.062	5.487	1772060508.660
3218	900.000	0.008	900.001	0.031	0.636	1772060508.965
3219	900.000	0.008	900.002	0.008	5.433	1772060509.292
3220	900.000	0.018	900.000	0.071	3.913	1772060509.572
3221	900.000	-0.014	899.998	0.031	3.312	1772060509.848
3222	900.000	0.057	900.001	0.052	1.296	1772060510.115
3223	900.000	0.025	899.999	0.038	3.110	1772060510.420
3224	900.000	-0.031	899.998	0.097	4.543	1772060510.724
3225	900.000	0.014	900.002	0.060	1.390	1772060511.040
3226	900.000	0.018	899.998	0.070	3.574	1772060511.357
3227	900.000	0.009	900.003	0.021	5.393	1772060511.673
3228	900.000	0.020	900.001	0.053	1.307	1772060511.954
3229	900.000	0.000	899.999	0.020	2.198	1772060512.233
3230	900.000	-0.030	900.000	0.090	0.250	1772060512.532
3231	900.000	0.011	900.001	0.038	2.805	1772060512.801
3232	900.000	-0.004	899.998	0.033	0.837	1772060513.116
3233	900.000	0.002	900.002	0.025	4.544	1772060513.446
3234	900.000	-0.017	900.000	0.040	5.456	1772060513.751
3235	900.000	0.022	899.997	0.115	1.311	1772060514.039
3236	900.000	-0.005	900.001	0.103	5.009	1772060514.329
3237	900.000	0.009	899.998	0.041	2.322	1772060514.622
3238	900.000	0.016	900.001	0.063	1.856	1772060514.929
3239	900.000	-0.026	899.999	0.042	5.911	1772060515.212
3240	900.000	-0.049	900.001	0.045	0.776	1772060515.483
3241	900.000	-0.039	899.999	0.115	0.641	1772060515.767
3242	900.000	-0.004	899.995	0.016	4.798	1772060516.033
3243	900.000	-0.027	899.999	0.079	4.391	1772060516.283
3244	900.000	-0.021	900.000	0.133	0.705	1772060516.555
3245	900.000	-0.026	899.998	0.028	2.227	1772060516.866
3246	900.000	-0.008	900.000	0.045	4.780	1772060517.169
3247	900.000	-0.006	900.002	0.030	1.930	1772060517.472
3248	900.000	-0.017	900.002	0.060	3.752	1772060517.709
3249	900.000	0.033	899.999	0.111	3.553	1772060517.988
3250	900.000	0.033	899.999	0.058	0.054	1772060518.286
3251	900.000	-0.012	900.001	0.046	5.878	1772060518.602
3252	900.000	0.013	899.995	0.047	5.436	1772060518.909
3253	900.000	-0.002	900.001	0.134	0.435	1772060519.223
3254	900.000	-0.013	899.997	0.095	4.520	1772060519.543
3255	900.000	-0.002	899.997	0.066	0.981	1772060519.856
3256	900.000	0.014	899.998	0.044	3.690	1772060520.146
3257	900.000	0.005	900.002	0.037	0.362	1772060520.432
3258	900.000	0.009	899.999	0.059	0.248	1772060520.739
3259	900.000	-0.025	899.999	0.032	4.739	1772060521.050
3260	900.000	0.001	900.001	0.023	5.697	1772060521.362
3261	900.000	-0.020	900.000	0.078	1.333	1772060521.667
3262	900.000	0.002	900.000	0.030	6.011	1772060521.993
3263	900.000	0.007	899.999	0.077	2.306	1772060522.270
3264	900.000	-0.042	900.001	0.042	1.562	1772060522.529
3265	900.000	0.017	900.003	0.075	5.076	1772060522.807
3266	900.000	0.011	900.000	0.051	0.144	1772060523.094
3267	900.000	-0.007	899.999	0.076	1.092	1772060523.415
3268	900.000	-0.040	900.001	0.110	0.075	1772060523.722
3269	900.000	0.002	899.998	0.102	0.346	1772060524.025
3270	900.000	0.009	899.999	0.059	5.677	1772060524.289
3271	900.000	0.010	899.999	0.068	6.273	1772060524.616
3272	900.000	0.012	900.002	0.068	0.541	1772060524.916
3273	900.000	-0.001	899.999	0.047	4.000	1772060525.178
3274	900.000	0.037	900.001	0.030	0.338	1772060525.510
3275	900.000	-0.028	900.000	0.024	0.115	1772060525.806
3276	900.000	-0.019	900.001	0.043	5.370	1772060526.094
3277	900.000	-0.009	899.999	0.079	0.890	1772060526.392
3278	900.000	-0.016	900.003	0.039	1.181	1772060526.697
3279	900.000	-0.020	899.999	0.080	5.704	1772060527.007
3280	900.000	-0.005	900.000	0.130	0.412	1772060527.318
3281	900.000	0.032	899.998	0.082	4.354	1772060527.630
3282	900.000	-0.019	900.002	0.075	0.851	1772060527.930
3283	900.000	0.003	899.999	0.102	0.776	1772060528.244
3284	900.000	0.011	900.000	0.080	4.203	1772060528.564
3285	900.000	-0.019	900.000	0.101	0.829	1772060528.871
3286	900.000	-0.003	900.000	0.070	1.163	1772060529.187
3287	900.000	0.006	900.002	0.097	4.020	1772060529.483
3288	900.000	0.010	899.999	0.020	2.146	1772060529.738
3289	900.000	0.024	900.001	0.028	2.553	1772060530.058
3290	900.000	-0.024	900.000	0.039	5.146	1772060530.363
3291	900.000	-0.003	900.003	0.061	1.232	1772060530.692
3292	900.000	0.022	900.001	0.022	5.801	1772060530.994
3293	900.000	0.028	900.003	0.060	4.421	1772060531.298
3294	900.000	-0.034	900.000	0.105	1.968	1772060531.568
3295	900.000	0.005	899.998	0.042	5.927	1772060531.905
3296	900.000	0.009	900.001	0.051	5.544	1772060532.184
3297	900.000	-0.032	900.002	0.107	0.338	1772060532.472
3298	900.000	-0.012	900.002	0.009	4.883	1772060532.757
3299	900.000	-0.029	900.001	0.038	5.484	1772060533.064
3300	900.000	-0.012	899.996	0.075	1.103	1772060533.390
3301	900.000	0.008	900.001	0.085	5.727	1772060533.706
3302	900.000	-0.009	899.999	0.051	5.154	1772060534.024
3303	900.000	-0.011	899.993	0.153	0.515	1772060534.334
3304	900.000	0.003	900.000	0.011	3.816	1772060534.629
3305	900.000	0.007	900.003	0.058	0.193	1772060534.898
3306	900.000	0.012	899.999	0.082	0.358	1772060535.186
3307	900.000	0.014	899.996	0.081	1.073	1772060535.454
3308	900.000	-0.020	900.001	0.048	3.244	1772060535.755
3309	900.000	-0.008	900.000	0.053	0.183	1772060536.046
3310	900.000	-0.029	900.002	0.013	1.823	1772060536.331
3311	900.000	0.003	899.998	0.030	4.089	1772060536.628
3312	900.000	0.026	899.998	0.075	1.451	1772060536.947
3313	900.000	0.013	900.000	0.094	5.851	1772060537.242
3314	900.000	-0.005	900.000	0.036	0.236	1772060537.511
3315	900.000	0.029	899.999	0.089	0.700	1772060537.830
3316	900.000	-0.004	900.001	0.025	5.438	1772060538.170
3317	900.000	0.022	900.000	0.094	0.805	1772060538.430
3318	900.000	-0.013	900.004	0.033	0.429	1772060538.671
3319	900.000	0.014	899.999	0.053	0.148	1772060538.951
3320	900.000	-0.011	900.001	0.080	0.580	1772060539.270
3321	900.000	0.040	900.003	0.041	3.773	1772060539.555
3322	900.000	0.008	899.999	0.044	0.601	1772060539.831
3323	900.000	-0.014	900.005	0.117	0.677	1772060540.129
3324	900.000	0.008	899.999	0.060	0.428	1772060540.398
3325	900.000	0.031	900.000	0.024	0.262	1772060540.695
3326	900.000	0.028	899.999	0.110	0.419	1772060541.018
3327	900.000	0.003	899.998	0.044	4.554	1772060541.299
3328	900.000	-0.003	899.999	0.006	6.196	1772060541.580
3329	900.000	-0.016	899.996	0.038	0.655	1772060541.889
3330	900.000	0.024	900.002	0.038	5.958	1772060542.198
3331	900.000	0.038	900.002	0.018	6.250	1772060542.499
3332	900.000	0.007	899.995	0.102	1.051	1772060542.794
3333	900.000	-0.013	900.003	0.057	1.677	1772060543.049
3334	900.000	-0.016	900.002	0.025	4.701	1772060543.327
3335	900.000	-0.010	900.007	0.063	1.028	1772060543.641
3336	900.000	-0.009	899.996	0.052	0.002	1772060543.962
3337	900.000	-0.020	899.998	0.044	4.045	1772060544.240
3338	900.000	0.007	900.002	0.074	0.629	1772060544.520
3339	900.000	0.001	900.004	0.062	4.840	1772060544.808
3340	900.000	-0.030	900.003	0.050	0.828	1772060545.127
3341	900.000	0.025	899.999	0.067	1.212	1772060545.463
3342	900.000	0.002	899.997	0.051	5.969	1772060545.756
3343	900.000	-0.018	899.998	0.086	1.036	1772060545.983
3344	900.000	-0.025	900.001	0.090	0.088	1772060546.260
3345	900.000	0.010	899.997	0.060	0.024	1772060546.592
3346	900.000	-0.021	899.997	0.077	0.987	1772060546.879
3347	900.000	-0.015	900.000	0.020	4.912	1772060547.183
3348	900.000	0.004	900.002	0.039	4.984	1772060547.455
3349	900.000	-0.025	899.999	0.083	0.803	1772060547.733
3350	900.000	-0.044	899.995	0.004	5.050	1772060548.005
3351	900.000	0.046	899.999	0.052	4.456	1772060548.311
3352	900.000	-0.015	900.001	0.115	0.281	1772060548.627
3353	900.000	0.015	899.999	0.071	5.946	1772060548.936
3354	900.000	-0.004	899.999	0.026	5.001	1772060549.250
3355	900.000	-0.019	900.001	0.049	0.664	1772060549.572
3356	900.000	-0.004	900.001	0.015	3.911	1772060549.881
3357	900.000	-0.010	900.000	0.101	0.998	1772060550.199
3358	900.000	0.024	900.000	0.036	3.807	1772060550.499
3359	900.000	0.006	899.998	0.029	2.200	1772060550.757
3360	900.000	-0.002	900.004	0.119	0.678	1772060551.070
3361	900.000	-0.036	900.000	0.022	3.977	1772060551.372
3362	900.000	0.007	900.000	0.050	3.408	1772060551.601
3363	900.000	0.002	899.999	0.054	0.781	1772060551.886
3364	900.000	0.002	900.000	0.018	1.467	1772060552.203
3365	900.000	0.017	900.002	0.089	6.207	1772060552.518
3366	900.000	-0.012	899.999	0.078	1.003	1772060552.822
3367	900.000	0.021	899.998	0.031	0.002	1772060553.128
3368	900.000	-0.022	900.001	0.073	4.712	1772060553.455
3369	900.000	0.004	900.005	0.066	0.626	1772060553.730
3370	900.000	0.001	900.003	0.030	5.808	1772060554.000
3371	900.000	0.001	899.999	0.056	0.389	1772060554.320
3372	900.000	-0.010	899.999	0.099	6.125	1772060554.604
3373	900.000	-0.027	900.000	0.039	4.448	1772060554.873
3374	900.000	-0.013	900.004	0.059	0.991	1772060555.152
3375	900.000	-0.002	899.998	0.056	0.912	1772060555.450
3376	900.000	0.048	900.001	0.062	0.484	1772060555.728
3377	900.000	0.034	899.999	0.087	0.647	1772060556.036
3378	900.000	0.005	900.003	0.093	0.708	1772060556.333
3379	900.000	0.023	900.000	0.014	6.004	1772060556.609
3380	900.000	-0.005	899.997	0.060	0.579	1772060556.875
3381	900.000	-0.031	900.000	0.101	0.920	1772060557.138
3382	900.000	0.017	899.996	0.048	3.832	1772060557.375
3383	900.000	0.015	900.003	0.010	2.106	1772060557.646
3384	900.000	0.002	899.999	0.036	0.743	1772060557.966
3385	900.000	0.011	900.000	0.026	5.134	1772060558.275
3386	900.000	-0.019	900.003	0.099	1.039	1772060558.573
3387	900.000	0.015	899.999	0.019	2.261	1772060558.847
3388	900.000	-0.032	900.000	0.067	3.998	1772060559.174
3389	900.000	0.000	900.004	0.088	0.432	1772060559.446
3390	900.000	0.013	900.002	0.041	5.308	1772060559.720
3391	900.000	-0.001	899.997	0.087	4.600	1772060560.037
3392	900.000	-0.007	900.001	0.018	6.044	1772060560.340
3393	900.000	-0.017	899.999	0.064	0.298	1772060560.655
3394	900.000	-0.011	899.999	0.067	4.974	1772060560.957
3395	900.000	0.010	900.002	0.055	4.609	1772060561.210
3396	900.000	-0.005	899.997	0.040	0.956	1772060561.521
3397	900.000	0.036	900.001	0.027	4.205	1772060561.824
3398	900.000	0.017	900.002	0.025	0.645	1772060562.072
3399	900.000	-0.045	900.000	0.037	1.266	1772060562.349
3400	900.000	-0.019	900.000	0.034	5.054	1772060562.656
3401	900.000	-0.026	900.001	0.017	3.240	1772060562.959
3402	900.000	0.030	900.001	0.023	3.004	1772060563.279
3403	900.000	0.007	899.998	0.050	0.352	1772060563.594
3404	900.000	-0.003	900.003	0.028	5.776	1772060563.920
3405	900.000	0.002	899.998	0.064	0.657	1772060564.214
3406	900.000	0.017	899.998	0.017	4.495	1772060564.521
3407	900.000	-0.028	899.997	0.046	1.158	1772060564.848
3408	900.000	-0.006	900.000	0.068	0.691	1772060565.165
3409	900.000	-0.004	900.000	0.091	4.640	1772060565.451
3410	900.000	0.020	899.999	0.112	1.230	1772060565.717
3411	900.000	0.005	900.002	0.121	0.203	1772060566.020
3412	900.000	-0.009	899.997	0.066	5.372	1772060566.279
3413	900.000	-0.002	900.000	0.030	2.813	1772060566.589
3414	900.000	-0.015	899.999	0.022	5.094	1772060566.895
3415	900.000	0.014	900.000	0.066	5.218	1772060567.221
3416	900.000	0.017	900.000	0.086	0.468	1772060567.512
3417	900.000	0.033	900.002	0.076	0.572	1772060567.834
3418	900.000	0.003	900.001	0.044	3.995	1772060568.145
3419	900.000	-0.036	900.001	0.063	0.613	1772060568.404
3420	900.000	0.003	900.000	0.027	5.664	1772060568.712
3421	900.000	-0.024	900.000	0.049	5.314	1772060569.027
3422	900.000	0.023	899.999	0.059	1.257	1772060569.344
3423	900.000	-0.005	900.000	0.011	5.736	1772060569.654
3424	900.000	-0.010	899.999	0.043	5.140	1772060569.960
3425	900.000	0.017	899.997	0.033	1.029	1772060570.281
3426	900.000	0.003	899.999	0.101	5.485	1772060570.597
3427	900.000	-0.004	900.003	0.094	3.443	1772060570.900
3428	900.000	-0.010	900.002	0.035	2.606	1772060571.182
3429	900.000	-0.034	899.999	0.036	4.715	1772060571.463
3430	900.000	-0.031	899.997	0.057	0.676	1772060571.785
3431	900.000	-0.010	899.999	0.008	0.953	1772060572.097
3432	900.000	0.011	900.001	0.021	0.327	1772060572.387
3433	900.000	0.008	899.999	0.054	0.983	1772060572.708
3434	900.000	-0.019	900.000	0.021	4.629	1772060573.014
3435	900.000	0.001	899.997	0.031	4.705	1772060573.275
3436	900.000	0.006	900.000	0.113	1.204	1772060573.565
3437	900.000	0.003	900.003	0.067	4.764	1772060573.842
3438	900.000	0.001	900.001	0.042	3.462	1772060574.129
3439	900.000	-0.015	899.996	0.081	0.832	1772060574.420
3440	900.000	-0.013	900.003	0.068	5.936	1772060574.720
3441	900.000	-0.003	900.000	0.018	1.611	1772060575.040
3442	900.000	0.002	900.000	0.047	1.093	1772060575.336
3443	900.000	0.013	900.000	0.071	4.631	1772060575.655
3444	900.000	0.022	900.000	0.031	0.607	1772060575.961
3445	900.000	0.032	899.997	0.058	2.946	1772060576.274
3446	900.000	-0.012	899.998	0.042	3.560	1772060576.583
3447	900.000	-0.020	899.997	0.063	6.156	1772060576.887
3448	900.000	0.018	899.998	0.024	0.059	1772060577.156
3449	900.000	0.013	899.998	0.072	4.796	1772060577.456
3450	900.000	0.038	900.000	0.090	1.095	1772060577.760
3451	900.000	0.013	900.000	0.059	5.911	1772060578.037
3452	900.000	0.007	900.000	0.027	5.273	1772060578.346
3453	900.000	-0.005	900.001	0.101	0.943	1772060578.627
3454	900.000	-0.024	900.003	0.113	0.087	1772060578.897
3455	900.000	-0.004	899.997	0.044	5.092	1772060579.227
3456	900.000	-0.008	900.002	0.102	1.151	1772060579.498
3457	900.000	0.011	900.001	0.074	4.186	1772060579.762
3458	900.000	-0.026	899.998	0.039	2.241	1772060580.012
3459	900.000	-0.006	899.999	0.022	3.893	1772060580.328
3460	900.000	0.007	900.000	0.092	0.283	1772060580.634
3461	900.000	0.009	899.997	0.095	0.644	1772060580.885
3462	900.000	0.003	900.000	0.094	4.408	1772060581.143
3463	900.000	0.005	900.000	0.049	5.362	1772060581.462
3464	900.000	-0.033	900.000	0.075	0.179	1772060581.735
3465	900.000	0.030	900.001	0.032	5.389	1772060582.049
3466	900.000	-0.003	900.002	0.038	4.961	1772060582.290
3467	900.000	-0.008	900.001	0.043	4.415	1772060582.571
3468	900.000	-0.008	899.995	0.050	4.553	1772060582.889
3469	900.000	0.003	900.006	0.015	1.530	1772060583.180
3470	900.000	0.019	900.000	0.037	1.451	1772060583.499
3471	900.000	0.009	900.002	0.100	0.731	1772060583.809
3472	900.000	0.017	899.999	0.078	1.652	1772060584.116
3473	900.000	0.000	899.999	0.055	1.026	1772060584.376
3474	900.000	-0.011	899.999	0.043	3.838	1772060584.682
3475	900.000	-0.008	899.999	0.055	5.617	1772060584.996
3476	900.000	-0.003	899.999	0.076	4.679	1772060585.312
3477	900.000	-0.019	899.998	0.069	4.977	1772060585.600
3478	900.000	0.031	900.001	0.057	5.640	1772060585.876
3479	900.000	-0.005	900.001	0.094	4.070	1772060586.190
3480	900.000	0.025	900.003	0.051	4.788	1772060586.477
3481	900.000	0.024	899.998	0.035	5.369	1772060586.761
3482	900.000	-0.013	899.999	0.075	6.162	1772060587.068
3483	900.000	-0.012	899.999	0.070	4.617	1772060587.367
3484	900.000	0.003	899.999	0.061	5.681	1772060587.709
3485	900.000	0.000	900.000	0.038	5.235	1772060588.018
3486	900.000	-0.032	899.999	0.089	5.194	1772060588.337
3487	900.000	-0.017	899.999	0.058	4.360	1772060588.621
3488	900.000	0.001	900.001	0.042	6.064	1772060588.944
3489	900.000	-0.002	900.001	0.045	5.152	1772060589.244
3490	900.000	-0.000	900.004	0.006	0.824	1772060589.568
3491	900.000	-0.019	900.003	0.086	5.611	1772060589.873
3492	900.000	-0.055	900.004	0.047	4.905	1772060590.170
3493	900.000	0.008	899.999	0.057	5.212	1772060590.493
3494	900.000	0.006	900.000	0.079	4.629	1772060590.804
3495	900.000	-0.016	900.000	0.062	5.296	1772060591.042
3496	900.000	-0.001	899.997	0.047	4.857	1772060591.357
3497	900.000	0.015	899.998	0.063	5.414	1772060591.633
3498	900.000	0.028	900.004	0.027	5.339	1772060591.926
3499	900.000	-0.015	900.000	0.034	3.423	1772060592.255
3500	900.000	-0.012	899.997	0.028	5.563	1772060592.566
3501	900.000	-0.046	900.002	0.061	5.631	1772060592.881
3502	900.000	-0.005	899.999	0.017	3.934	1772060593.189
3503	900.000	0.017	899.999	0.093	3.870	1772060593.488
3504	900.000	0.003	900.005	0.069	4.895	1772060593.796
3505	900.000	0.001	900.002	0.073	4.591	1772060594.057
3506	900.000	0.031	899.997	0.054	4.743	1772060594.349
3507	900.000	0.002	900.001	0.054	5.873	1772060594.627
3508	900.000	0.012	899.999	0.050	4.901	1772060594.958
3509	900.000	-0.000	899.998	0.037	4.220	1772060595.241
3510	900.000	-0.024	900.000	0.076	4.756	1772060595.574
3511	900.000	0.010	900.000	0.029	5.209	1772060595.873
3512	900.000	-0.013	900.001	0.070	4.362	1772060596.174
3513	900.000	0.007	900.000	0.079	4.681	1772060596.434
3514	900.000	0.012	899.998	0.033	4.556	1772060596.750
3515	900.000	-0.002	900.000	0.062	4.385	1772060597.062
3516	900.000	0.002	900.001	0.036	4.781	1772060597.350
3517	900.000	0.023	900.000	0.035	5.289	1772060597.631
3518	900.000	-0.021	900.001	0.070	4.969	1772060597.934
3519	900.000	-0.016	900.000	0.063	4.522	1772060598.187
3520	900.000	-0.031	900.000	0.025	6.065	1772060598.505
3521	900.000	-0.014	899.997	0.066	4.863	1772060598.833
3522	900.000	0.027	900.002	0.063	5.476	1772060599.152
3523	900.000	-0.020	900.005	0.078	4.730	1772060599.453
3524	900.000	-0.012	900.002	0.029	5.234	1772060599.782
3525	900.000	0.000	900.000	0.026	4.882	1772060600.090
3526	900.000	0.023	900.001	0.090	4.755	1772060600.409
3527	900.000	-0.005	900.000	0.010	4.163	1772060600.711
3528	900.000	0.023	900.000	0.049	6.036	1772060600.973
3529	900.000	0.012	899.999	0.047	2.921	1772060601.275
3530	900.000	0.037	900.000	0.044	5.107	1772060601.601
3531	900.000	-0.012	900.001	0.051	4.561	1772060601.878
3532	900.000	-0.007	899.999	0.052	5.850	1772060602.145
3533	900.000	-0.021	900.002	0.062	4.362	1772060602.472
3534	900.000	0.022	900.001	0.032	4.223	1772060603.016
3535	900.000	0.013	899.997	0.028	2.818	1772060603.251
3536	900.000	0.016	900.002	0.066	5.880	1772060603.521
3537	900.000	-0.009	900.000	0.066	4.755	1772060603.761
3538	900.000	-0.014	900.000	0.036	4.899	1772060604.021
3539	900.000	-0.005	900.000	0.029	5.828	1772060604.318
3540	900.000	-0.013	899.998	0.039	5.577	1772060604.595
3541	900.000	0.004	900.004	0.046	4.855	1772060604.889
3542	900.000	-0.009	899.995	0.074	4.439	1772060605.200
3543	900.000	0.011	900.000	0.096	4.353	1772060605.509
3544	900.000	0.011	900.003	0.010	0.197	1772060605.784
3545	900.000	0.021	900.000	0.039	5.476	1772060606.055
3546	900.000	0.026	900.000	0.083	4.044	1772060606.330
3547	900.000	0.006	900.004	0.063	4.771	1772060606.655
3548	900.000	-0.025	899.998	0.029	5.424	1772060606.916
3549	900.000	-0.018	900.003	0.032	3.697	1772060607.222
3550	900.000	-0.029	900.000	0.025	4.219	1772060607.564
3551	900.000	0.013	899.999	0.063	4.547	1772060607.828
3552	900.000	0.042	899.999	0.099	4.874	1772060608.094
3553	900.000	-0.008	899.998	0.041	4.854	1772060608.351
3554	900.000	-0.001	900.002	0.018	6.119	1772060608.668
3555	900.000	-0.015	899.999	0.065	5.356	1772060608.963
3556	900.000	-0.018	900.002	0.049	4.656	1772060609.203
3557	900.000	0.017	900.000	0.077	4.700	1772060609.476
3558	900.000	0.025	899.999	0.056	4.791	1772060609.783
3559	900.000	0.014	900.000	0.061	4.980	1772060610.081
3560	900.000	0.006	900.000	0.027	4.400	1772060610.364
3561	900.000	-0.001	899.999	0.023	3.293	1772060610.664
3562	900.000	-0.001	899.999	0.034	5.238	1772060610.931
3563	900.000	0.011	900.003	0.035	5.098	1772060611.239
3564	900.000	-0.006	900.003	0.078	5.352	1772060611.549
3565	900.000	0.010	900.000	0.051	3.764	1772060611.843
3566	900.000	-0.005	900.000	0.022	0.341	1772060612.170
3567	900.000	0.007	899.998	0.031	4.030	1772060612.485
3568	900.000	0.003	900.001	0.061	5.924	1772060612.809
3569	900.000	-0.010	900.000	0.034	4.689	1772060613.105
3570	900.000	0.003	899.998	0.072	5.132	1772060613.403
3571	900.000	0.013	899.996	0.072	5.024	1772060613.729
3572	900.000	0.018	900.000	0.043	4.582	1772060614.022
3573	900.000	-0.019	899.998	0.032	4.381	1772060614.276
3574	900.000	-0.025	900.002	0.068	5.343	1772060614.555
3575	900.000	-0.023	900.001	0.049	4.259	1772060614.857
3576	900.000	-0.006	900.002	0.044	4.711	1772060615.156
3577	900.000	-0.022	900.001	0.076	6.165	1772060615.480
3578	900.000	0.007	899.998	0.040	5.466	1772060615.768
3579	900.000	0.029	900.000	0.098	4.204	1772060616.078
3580	900.000	0.023	900.001	0.034	5.009	1772060616.391
3581	900.000	-0.030	899.995	0.080	6.106	1772060616.674
3582	900.000	-0.013	900.000	0.074	5.679	1772060616.933
3583	900.000	-0.002	899.997	0.071	5.348	1772060617.257
3584	900.000	-0.020	899.997	0.062	4.268	1772060617.566
3585	900.000	-0.014	900.000	0.051	4.952	1772060617.869
3586	900.000	-0.019	899.999	0.042	0.316	1772060618.176
