Point No.	Frequency Set (GHz)	THz Photocurrent (nA)	Frequency Act (GHz)	Amplitude (via StrMod)	Phase (via StrMod)	Timestamp (s)
1	400.000	0.001	400.002	0.311	4.481	1772224442.726
2	400.000	-0.015	399.997	0.319	4.402	1772224443.000
3	400.000	-0.014	400.001	0.379	4.376	1772224443.205
4	400.000	-0.014	400.001	0.189	4.592	1772224443.473
5	400.000	-0.042	400.002	0.271	4.480	1772224443.725
6	400.000	-0.017	399.999	0.291	4.234	1772224443.950
7	400.000	0.002	399.997	0.391	4.378	1772224444.241
8	400.000	0.004	400.002	0.235	4.414	1772224444.473
9	400.000	-0.008	399.999	0.349	4.211	1772224444.754
10	400.000	0.041	400.000	0.277	4.289	1772224444.987
11	400.000	-0.000	399.998	0.363	4.220	1772224445.237
12	400.000	-0.005	399.997	0.385	4.327	1772224445.497
13	400.000	-0.052	400.003	0.306	4.443	1772224445.742
14	400.000	-0.038	400.001	0.287	4.391	1772224446.003
15	400.000	-0.004	399.999	0.233	4.183	1772224446.208
16	400.000	-0.014	400.000	0.280	4.236	1772224446.490
17	400.000	-0.004	399.998	0.307	4.385	1772224446.714
18	400.000	0.015	400.000	0.259	4.463	1772224446.988
19	400.000	-0.018	400.002	0.307	4.413	1772224447.220
20	400.000	-0.018	400.002	0.298	4.528	1772224447.469
21	400.000	0.017	399.998	0.322	4.374	1772224447.759
22	400.000	-0.035	400.000	0.332	4.441	1772224448.002
23	400.000	0.002	399.998	0.291	4.182	1772224448.234
24	400.000	-0.006	400.004	0.304	4.283	1772224448.493
25	400.000	0.002	399.999	0.370	4.276	1772224448.758
26	400.000	0.011	399.999	0.279	4.254	1772224448.995
27	400.000	0.017	400.002	0.225	4.510	1772224449.272
28	400.000	-0.018	400.001	0.367	4.339	1772224449.490
29	400.000	-0.020	399.999	0.251	4.477	1772224449.769
30	400.000	0.003	399.998	0.390	4.391	1772224450.018
31	400.000	0.015	400.004	0.310	4.383	1772224450.281
32	400.000	0.018	400.001	0.256	4.358	1772224450.513
33	400.000	-0.017	400.000	0.184	4.134	1772224450.787
34	400.000	0.025	399.995	0.277	4.466	1772224451.022
35	400.000	0.020	400.003	0.342	4.625	1772224451.240
36	400.000	0.006	400.001	0.318	4.101	1772224451.527
37	400.000	0.028	400.000	0.362	4.368	1772224451.751
38	400.000	0.032	399.998	0.353	4.238	1772224452.035
39	400.000	0.002	400.001	0.351	4.345	1772224452.260
40	400.000	0.017	399.999	0.321	4.431	1772224452.541
41	400.000	-0.013	400.001	0.262	4.592	1772224452.758
42	400.000	-0.005	400.000	0.235	4.377	1772224453.010
43	400.000	-0.001	400.000	0.398	4.168	1772224453.263
44	400.000	0.019	399.997	0.368	4.386	1772224453.517
45	400.000	-0.007	399.999	0.329	4.404	1772224453.773
46	400.000	0.010	399.999	0.399	4.534	1772224454.001
47	400.000	0.027	400.004	0.275	4.295	1772224454.274
48	400.000	0.004	400.002	0.259	4.362	1772224454.511
49	400.000	0.046	400.000	0.255	4.437	1772224454.753
50	400.000	0.007	400.004	0.250	4.614	1772224455.010
51	400.000	0.020	400.002	0.336	4.524	1772224455.257
52	400.000	-0.003	399.997	0.319	4.467	1772224455.516
53	400.000	0.054	399.999	0.310	4.467	1772224455.764
54	400.000	-0.001	400.002	0.328	4.352	1772224456.062
55	400.000	0.036	400.000	0.265	4.378	1772224456.311
56	400.000	0.005	399.999	0.351	4.338	1772224456.577
57	400.000	0.018	399.997	0.241	4.518	1772224456.821
58	400.000	-0.033	400.001	0.395	4.369	1772224457.072
59	400.000	-0.022	400.000	0.289	4.522	1772224457.318
60	400.000	-0.032	399.998	0.449	4.419	1772224457.583
61	400.000	0.044	400.001	0.261	4.359	1772224457.841
62	400.000	-0.001	400.002	0.336	4.371	1772224458.101
63	400.000	-0.030	400.002	0.189	4.143	1772224458.339
64	400.000	0.016	399.999	0.346	4.211	1772224458.565
65	400.000	-0.027	399.998	0.331	4.291	1772224458.825
66	400.000	-0.045	400.000	0.255	4.390	1772224459.069
67	400.000	-0.024	399.999	0.333	4.318	1772224459.349
68	400.000	-0.019	400.002	0.326	4.239	1772224459.568
69	400.000	0.016	399.997	0.340	4.125	1772224459.811
70	400.000	0.014	400.000	0.273	4.387	1772224460.074
71	400.000	0.027	399.999	0.266	4.326	1772224460.353
72	400.000	0.029	399.998	0.292	4.608	1772224460.571
73	400.000	0.022	399.997	0.248	4.200	1772224460.816
74	400.000	0.034	399.998	0.270	4.427	1772224461.065
75	400.000	0.027	400.001	0.278	4.473	1772224461.331
76	400.000	-0.003	400.002	0.309	4.411	1772224461.574
77	400.000	-0.025	399.999	0.316	4.306	1772224461.840
78	400.000	-0.034	399.999	0.270	4.246	1772224462.109
79	400.000	-0.029	400.002	0.304	4.525	1772224462.361
80	400.000	0.057	400.001	0.343	4.317	1772224462.618
81	400.000	-0.002	400.000	0.217	4.567	1772224462.838
82	400.000	-0.042	400.002	0.249	4.168	1772224463.087
83	400.000	-0.016	399.999	0.312	4.275	1772224463.355
84	400.000	0.005	400.000	0.326	4.335	1772224463.605
85	400.000	-0.001	400.002	0.356	4.576	1772224463.847
86	400.000	-0.012	399.999	0.278	4.415	1772224464.102
87	400.000	-0.004	400.002	0.243	4.408	1772224464.342
88	400.000	-0.055	399.996	0.333	4.421	1772224464.591
89	400.000	-0.014	399.998	0.461	4.298	1772224464.851
90	400.000	-0.019	400.003	0.285	4.102	1772224465.100
91	400.000	0.043	400.001	0.377	4.259	1772224465.330
92	400.000	-0.004	400.000	0.291	4.331	1772224465.597
93	400.000	0.019	399.998	0.327	4.547	1772224465.851
94	400.000	0.009	400.001	0.250	4.223	1772224466.077
95	400.000	0.002	399.998	0.290	4.392	1772224466.350
96	400.000	0.014	399.996	0.187	4.776	1772224466.615
97	400.000	0.054	400.001	0.270	4.278	1772224466.867
98	400.000	0.020	400.000	0.241	4.553	1772224467.057
99	400.000	0.070	400.000	0.220	4.626	1772224467.299
100	400.000	0.004	400.002	0.288	4.260	1772224467.521
101	400.000	0.071	399.996	0.371	4.271	1772224467.776
102	400.000	-0.039	400.001	0.257	4.428	1772224468.026
103	400.000	0.001	400.000	0.259	4.373	1772224468.296
104	400.000	-0.023	400.001	0.318	4.359	1772224468.509
105	400.000	-0.013	400.001	0.292	4.511	1772224468.785
106	400.000	0.022	400.001	0.360	4.361	1772224469.014
107	400.000	0.021	399.997	0.291	4.108	1772224469.274
108	400.000	0.021	400.001	0.314	4.449	1772224469.512
109	400.000	-0.010	399.999	0.381	4.338	1772224469.789
110	400.000	-0.019	400.002	0.324	4.391	1772224470.042
111	400.000	0.014	399.998	0.297	4.425	1772224470.278
112	400.000	-0.013	400.002	0.284	4.439	1772224470.530
113	400.000	-0.012	400.000	0.376	4.437	1772224470.763
114	400.000	0.002	400.001	0.225	4.131	1772224471.022
115	400.000	0.034	399.999	0.271	4.281	1772224471.278
116	400.000	-0.017	400.000	0.360	4.332	1772224471.546
117	400.000	-0.008	400.001	0.299	4.532	1772224471.786
118	400.000	0.001	399.997	0.272	4.149	1772224472.035
119	400.000	0.007	400.001	0.310	4.263	1772224472.287
120	400.000	-0.006	400.001	0.295	4.300	1772224472.515
121	400.000	0.009	400.002	0.221	4.334	1772224472.786
122	400.000	-0.016	400.006	0.288	4.310	1772224473.012
123	400.000	0.001	399.997	0.339	4.301	1772224473.270
124	400.000	0.013	399.997	0.265	4.366	1772224473.519
125	400.000	-0.037	399.998	0.338	4.561	1772224473.789
126	400.000	-0.003	399.998	0.217	4.536	1772224474.048
127	400.000	0.025	400.000	0.287	4.474	1772224474.345
128	400.000	-0.008	400.001	0.331	4.231	1772224474.571
129	400.000	-0.015	399.997	0.255	4.238	1772224474.835
130	400.000	-0.018	400.000	0.249	4.661	1772224475.077
131	400.000	0.000	399.996	0.300	4.397	1772224475.352
132	400.000	0.016	400.000	0.271	4.554	1772224475.595
133	400.000	-0.005	399.998	0.263	4.412	1772224475.910
134	400.000	-0.024	400.002	0.292	4.358	1772224476.130
135	400.000	-0.005	400.002	0.235	4.252	1772224476.394
136	400.000	0.043	400.002	0.300	4.544	1772224476.636
137	400.000	0.020	400.002	0.307	4.319	1772224476.919
138	400.000	0.003	400.001	0.262	4.475	1772224477.202
139	400.000	-0.043	400.001	0.419	4.314	1772224477.460
140	400.000	-0.035	399.999	0.299	4.188	1772224477.703
141	400.000	0.015	400.002	0.239	4.131	1772224477.987
142	400.000	0.018	400.003	0.296	4.407	1772224478.220
143	400.000	0.012	400.005	0.267	4.329	1772224478.462
144	400.000	-0.009	400.000	0.276	4.413	1772224478.749
145	400.000	-0.042	399.999	0.286	4.490	1772224478.982
146	400.000	0.006	400.002	0.341	4.224	1772224479.232
147	400.000	-0.004	400.000	0.368	4.412	1772224479.462
148	400.000	-0.003	400.001	0.369	4.260	1772224479.736
149	400.000	-0.013	399.998	0.382	4.182	1772224479.973
150	400.000	-0.008	399.998	0.287	4.266	1772224480.242
151	400.000	-0.031	400.002	0.192	4.582	1772224480.496
152	400.000	-0.012	400.005	0.226	1.063	1772224480.807
153	400.000	0.039	400.000	0.217	1.561	1772224481.030
154	400.000	-0.010	400.000	0.228	1.363	1772224481.315
155	400.000	-0.000	400.001	0.225	1.341	1772224481.547
156	400.000	0.047	400.000	0.093	2.607	1772224481.795
157	400.000	-0.023	399.999	0.150	1.216	1772224482.036
158	400.000	-0.004	400.001	0.236	1.529	1772224482.305
159	400.000	-0.004	400.000	0.198	1.201	1772224482.561
160	400.000	0.040	400.000	0.081	1.434	1772224482.782
161	400.000	-0.010	400.004	0.246	1.329	1772224483.046
162	400.000	0.007	400.000	0.157	1.226	1772224483.300
163	400.000	-0.011	400.000	0.220	0.949	1772224483.545
164	400.000	-0.017	400.002	0.138	1.631	1772224483.796
165	400.000	-0.033	400.001	0.008	5.315	1772224484.024
166	400.000	0.006	400.000	0.094	2.295	1772224484.293
167	400.000	0.016	400.001	0.270	1.221	1772224484.530
168	400.000	0.019	399.998	0.242	0.982	1772224484.820
169	400.000	-0.034	400.001	0.030	1.702	1772224485.033
170	400.000	-0.024	400.001	0.159	1.016	1772224485.299
171	400.000	-0.010	400.003	0.039	4.381	1772224485.532
172	400.000	-0.013	400.001	0.200	0.498	1772224485.801
173	400.000	0.013	399.997	0.075	0.719	1772224486.055
174	400.000	0.002	399.999	0.093	0.567	1772224486.307
175	400.000	-0.036	399.997	0.074	4.872	1772224486.539
176	400.000	0.026	400.000	0.164	0.828	1772224486.810
177	400.000	-0.004	400.001	0.165	0.677	1772224487.049
178	400.000	0.010	399.999	0.117	5.432	1772224487.284
179	400.000	-0.005	400.000	0.268	0.765	1772224487.544
180	400.000	0.030	399.997	0.045	2.638	1772224487.801
181	400.000	0.001	400.003	0.024	4.599	1772224488.048
182	400.000	0.006	399.999	0.382	1.147	1772224488.300
183	400.000	-0.003	400.000	0.122	1.614	1772224488.548
184	400.000	-0.001	400.002	0.106	5.302	1772224488.799
185	400.000	-0.023	399.998	0.366	1.084	1772224489.033
186	400.000	0.025	399.999	0.158	1.251	1772224489.302
187	400.000	0.018	400.000	0.099	1.251	1772224489.549
188	400.000	0.003	400.003	0.247	1.040	1772224489.789
189	400.000	-0.035	400.004	0.065	0.242	1772224490.050
190	400.000	-0.021	400.000	0.048	0.231	1772224490.287
191	400.000	-0.025	400.002	0.268	1.274	1772224490.536
192	400.000	0.003	399.997	0.155	1.024	1772224490.826
193	400.000	-0.003	400.001	0.293	1.244	1772224491.143
194	400.000	0.003	400.001	0.158	0.988	1772224491.441
195	400.000	0.009	400.002	0.148	1.648	1772224491.681
196	400.000	0.007	400.001	0.243	1.116	1772224491.930
197	400.000	-0.003	399.998	0.179	0.925	1772224492.181
198	400.000	0.014	399.998	0.023	4.595	1772224492.453
199	400.000	-0.025	399.999	0.145	0.760	1772224492.737
200	400.000	0.004	399.997	0.152	0.867	1772224492.992
201	400.000	-0.008	400.000	0.344	0.965	1772224493.232
202	400.000	-0.003	400.000	0.126	1.478	1772224493.503
203	400.000	0.023	399.999	0.060	0.629	1772224493.751
204	400.000	0.011	400.002	0.415	1.365	1772224494.010
205	400.000	-0.007	399.999	0.127	0.760	1772224494.274
206	400.000	0.018	400.003	0.135	1.107	1772224494.565
207	400.000	0.030	400.001	0.069	1.396	1772224494.811
208	400.000	-0.017	399.999	0.100	0.958	1772224495.115
209	400.000	-0.013	400.005	0.164	1.993	1772224495.381
210	400.000	0.036	400.002	0.106	4.509	1772224495.630
211	400.000	-0.017	400.003	0.133	1.102	1772224495.863
212	400.000	0.009	400.004	0.120	0.978	1772224496.129
213	400.000	0.003	400.000	0.087	2.846	1772224496.387
214	400.000	0.006	400.001	0.180	0.686	1772224496.650
215	400.000	0.001	400.001	0.016	1.856	1772224496.968
216	400.000	0.004	399.999	0.200	1.220	1772224497.251
217	400.000	-0.013	399.999	0.102	2.416	1772224497.583
218	400.000	-0.014	400.002	0.096	1.755	1772224497.897
219	400.000	-0.007	399.998	0.150	1.127	1772224498.195
220	400.000	0.012	400.003	0.115	0.977	1772224498.433
221	400.000	-0.016	399.998	0.166	1.014	1772224498.700
222	400.000	0.050	399.999	0.267	1.221	1772224498.942
223	400.000	-0.006	399.997	0.178	3.962	1772224499.185
224	400.000	-0.019	400.000	0.224	0.964	1772224499.428
225	400.000	-0.036	400.002	0.344	1.263	1772224499.691
226	400.000	0.011	399.997	0.132	2.103	1772224499.944
227	400.000	-0.041	399.998	0.232	0.925	1772224500.177
228	400.000	-0.008	400.000	0.056	1.539	1772224500.424
229	400.000	-0.040	399.999	0.080	2.958	1772224500.691
230	400.000	0.010	399.999	0.714	3.991	1772224500.918
231	400.000	-0.022	400.003	0.799	4.049	1772224501.222
232	400.000	-0.010	400.002	0.860	4.088	1772224501.458
233	400.000	-0.013	400.001	0.737	4.150	1772224501.701
234	400.000	-0.000	400.002	0.695	3.956	1772224501.964
235	400.000	0.004	400.002	0.772	3.970	1772224502.232
236	400.000	0.029	399.999	0.725	4.052	1772224502.515
237	400.000	0.013	399.998	0.777	4.071	1772224502.762
238	400.000	-0.005	400.001	0.697	4.171	1772224503.010
239	400.000	0.036	400.000	0.878	1.429	1772224503.276
240	400.000	-0.034	399.997	0.299	5.207	1772224503.522
241	400.000	-0.026	400.000	0.395	3.496	1772224503.766
242	400.000	0.001	400.001	0.874	1.002	1772224504.019
243	400.000	-0.003	400.000	0.707	4.262	1772224504.242
244	400.000	0.017	400.002	0.579	1.670	1772224504.511
245	400.000	-0.011	400.003	0.246	5.799	1772224504.765
246	400.000	-0.006	400.000	0.332	2.786	1772224505.083
247	400.000	-0.037	400.000	0.684	0.843	1772224505.300
248	400.000	-0.025	400.001	0.674	4.300	1772224505.581
249	400.000	0.019	399.997	1.031	1.208	1772224505.816
250	400.000	-0.031	400.002	0.292	5.300	1772224506.093
251	400.000	0.055	399.998	0.279	2.205	1772224506.399
252	400.000	0.009	399.998	0.256	5.992	1772224506.695
253	400.000	-0.035	399.998	0.408	3.598	1772224506.958
254	400.000	0.009	400.000	0.845	0.881	1772224507.203
255	400.000	0.004	399.998	0.685	4.171	1772224507.474
256	400.000	-0.025	400.000	0.998	1.214	1772224507.734
257	400.000	0.002	399.999	0.322	5.083	1772224507.982
258	400.000	0.004	400.001	0.376	2.737	1772224508.229
259	400.000	-0.025	400.000	0.773	0.863	1772224508.481
260	400.000	-0.013	400.002	0.709	4.217	1772224508.733
261	400.000	-0.015	400.000	0.897	1.403	1772224508.972
262	400.000	0.013	400.003	0.372	4.836	1772224509.251
263	400.000	0.025	400.000	0.459	3.450	1772224509.478
264	400.000	0.026	399.998	1.097	0.983	1772224509.725
265	400.000	0.037	399.998	0.562	4.411	1772224509.979
266	400.000	-0.005	399.998	0.527	1.770	1772224510.249
267	400.000	-0.053	400.001	0.349	6.229	1772224510.483
268	400.000	0.018	400.000	0.709	3.964	1772224510.704
269	400.000	0.000	400.003	0.922	1.122	1772224510.998
270	400.000	-0.014	400.001	0.761	4.422	1772224511.229
271	400.000	-0.007	400.005	0.463	1.978	1772224511.511
272	400.000	-0.013	400.002	0.264	6.138	1772224511.815
273	400.000	0.003	399.999	0.360	2.895	1772224512.097
274	400.000	0.019	400.004	0.759	0.711	1772224512.364
275	400.000	-0.016	400.001	0.664	3.995	1772224512.615
276	400.000	0.005	400.003	0.902	1.368	1772224512.867
277	400.000	0.017	399.999	0.422	4.835	1772224513.125
278	400.000	-0.022	400.001	0.415	2.117	1772224513.427
279	400.000	-0.011	400.004	0.581	0.393	1772224513.659
280	400.000	0.005	400.004	0.644	4.106	1772224513.929
281	400.000	-0.024	400.000	1.098	1.143	1772224514.169
282	400.000	0.018	400.000	0.518	4.766	1772224514.438
283	400.000	-0.017	400.001	0.467	1.748	1772224514.717
284	400.000	0.007	400.001	0.380	0.169	1772224514.987
285	400.000	0.055	400.001	0.580	3.767	1772224515.202
286	400.000	-0.026	400.001	1.054	1.183	1772224515.505
287	400.000	-0.036	400.000	0.728	4.493	1772224515.730
288	400.000	0.025	399.996	0.503	1.985	1772224515.980
289	400.000	-0.023	400.001	0.514	0.375	1772224516.255
290	400.000	0.013	399.998	0.457	3.743	1772224516.548
291	400.000	0.019	399.999	1.016	0.916	1772224516.784
292	400.000	0.018	400.001	0.682	4.458	1772224517.066
293	400.000	-0.002	399.999	0.625	1.635	1772224517.297
294	400.000	0.009	400.002	0.338	6.102	1772224517.543
295	400.000	-0.010	400.001	0.584	3.887	1772224517.791
296	400.000	0.015	400.000	1.008	1.105	1772224518.051
297	400.000	-0.010	400.000	0.605	4.553	1772224518.293
298	400.000	0.042	400.001	0.359	2.741	1772224518.523
299	400.000	-0.014	399.998	0.672	0.703	1772224518.803
300	400.000	0.019	399.998	0.592	4.046	1772224519.063
301	400.000	0.015	400.000	0.972	1.042	1772224519.357
302	400.000	0.007	399.999	0.678	4.527	1772224519.582
303	400.000	0.008	400.001	0.558	1.654	1772224519.854
304	400.000	-0.007	400.002	0.280	5.681	1772224520.104
305	400.000	-0.046	400.000	0.440	3.778	1772224520.353
306	400.000	0.008	400.002	1.048	0.927	1772224520.610
307	400.000	0.032	400.001	0.645	4.433	1772224520.840
308	400.000	-0.015	399.999	0.628	1.654	1772224521.114
309	400.000	0.008	400.001	0.403	0.223	1772224521.377
310	400.000	-0.001	400.002	0.404	3.343	1772224521.663
311	400.000	0.026	400.003	0.967	0.905	1772224521.926
312	400.000	0.010	399.995	0.750	4.189	1772224522.178
313	400.000	-0.010	400.002	0.661	1.604	1772224522.413
314	400.000	0.042	400.000	0.329	6.168	1772224522.683
315	400.000	-0.002	399.996	0.400	3.471	1772224522.902
316	400.000	0.008	400.002	1.008	1.049	1772224523.175
317	400.000	-0.019	400.000	0.752	4.505	1772224523.406
318	400.000	-0.023	400.000	0.436	1.805	1772224523.670
319	400.000	-0.013	399.996	0.414	0.218	1772224523.925
320	400.000	0.020	399.997	0.566	3.972	1772224524.154
321	400.000	-0.004	400.000	0.941	1.205	1772224524.401
322	400.000	-0.003	399.997	0.515	4.913	1772224524.660
323	400.000	0.021	399.999	0.390	2.923	1772224524.910
324	400.000	0.007	399.999	0.713	0.710	1772224525.153
325	400.000	-0.015	400.000	0.711	4.230	1772224525.427
326	400.000	0.002	399.999	0.952	1.286	1772224525.678
327	400.000	0.004	400.002	0.554	4.818	1772224525.981
328	400.000	-0.021	400.001	0.508	1.764	1772224526.219
329	400.000	-0.005	400.002	0.530	0.275	1772224526.492
330	400.000	0.022	400.001	0.586	3.918	1772224526.713
331	400.000	0.015	400.004	0.918	1.264	1772224526.993
332	400.000	0.010	399.998	0.687	4.628	1772224527.224
333	400.000	0.027	399.997	0.325	2.965	1772224527.501
334	400.000	0.006	399.999	0.538	0.549	1772224527.749
335	400.000	0.017	400.000	0.699	4.108	1772224527.991
336	400.000	0.003	399.996	1.000	1.304	1772224528.258
337	400.000	0.002	399.999	0.487	4.852	1772224528.567
338	400.000	0.013	400.001	0.702	1.624	1772224528.866
339	400.000	0.019	400.000	0.433	5.472	1772224529.117
340	400.000	-0.001	400.002	0.518	3.629	1772224529.334
341	400.000	0.007	399.998	0.999	1.060	1772224529.599
342	400.000	-0.001	400.001	0.683	4.570	1772224529.860
343	400.000	0.013	399.999	0.649	1.526	1772224530.132
344	400.000	0.009	400.004	0.301	5.618	1772224530.418
345	400.000	-0.053	399.997	0.383	3.489	1772224530.667
346	400.000	-0.019	399.999	0.903	0.953	1772224530.899
347	400.000	-0.033	399.999	0.733	4.338	1772224531.173
348	400.000	0.017	400.001	0.721	1.573	1772224531.423
349	400.000	0.004	399.999	0.414	5.547	1772224531.651
350	400.000	-0.003	399.998	0.375	3.533	1772224531.961
351	400.000	0.035	400.002	0.526	0.618	1772224532.265
352	400.000	-0.013	400.001	0.665	4.055	1772224532.491
353	400.000	-0.002	400.000	1.114	1.309	1772224532.792
354	400.000	0.076	400.000	0.590	4.540	1772224533.091
355	400.000	0.015	400.003	0.849	1.455	1772224533.339
356	400.000	0.020	400.003	0.359	5.519	1772224533.611
357	400.000	0.002	399.998	0.446	3.347	1772224533.861
358	400.000	-0.000	400.000	0.848	0.971	1772224534.161
359	400.000	-0.023	400.000	0.746	4.111	1772224534.398
360	400.000	-0.003	400.002	0.814	1.387	1772224534.661
361	400.000	0.020	399.999	0.461	4.898	1772224534.914
362	400.000	-0.000	400.000	0.351	3.372	1772224535.155
363	400.000	0.012	399.997	0.914	0.851	1772224535.403
364	400.000	-0.008	399.998	0.619	4.279	1772224535.672
365	400.000	0.019	400.003	0.790	1.207	1772224535.976
366	400.000	0.006	399.999	0.526	4.774	1772224536.227
367	400.000	-0.023	399.998	0.321	2.408	1772224536.472
368	400.000	-0.026	399.999	0.785	0.897	1772224536.700
369	400.000	0.014	399.998	0.734	4.170	1772224536.970
370	400.000	0.012	400.001	0.797	1.325	1772224537.217
371	400.000	0.005	400.002	0.344	5.375	1772224537.477
372	400.000	0.015	399.998	0.346	3.585	1772224537.721
373	400.000	-0.001	400.004	0.900	1.014	1772224537.983
374	400.000	-0.001	399.999	0.697	4.346	1772224538.217
375	400.000	-0.014	399.997	0.483	1.872	1772224538.439
376	400.000	-0.027	400.001	0.342	6.179	1772224538.734
377	400.000	0.001	400.000	0.445	3.696	1772224538.971
378	400.000	-0.009	400.001	1.020	1.149	1772224539.221
379	400.000	0.018	400.000	0.615	4.587	1772224539.449
380	400.000	-0.007	399.999	0.383	2.142	1772224539.726
381	400.000	-0.011	399.997	0.550	0.552	1772224539.983
382	400.000	-0.042	400.002	0.539	3.859	1772224540.283
383	400.000	-0.020	399.998	0.937	1.076	1772224540.510
384	400.000	0.018	399.999	0.618	4.611	1772224540.799
385	400.000	0.015	400.001	0.508	1.635	1772224541.023
386	400.000	0.010	400.001	0.339	0.433	1772224541.307
387	400.000	0.023	400.003	0.341	3.522	1772224541.610
388	400.000	-0.033	400.004	0.739	0.926	1772224541.840
389	400.000	0.016	400.000	0.670	4.417	1772224542.090
390	400.000	0.013	399.999	0.640	1.466	1772224542.355
391	400.000	0.014	400.004	0.274	0.027	1772224542.601
392	400.000	-0.022	399.999	0.349	3.843	1772224542.857
393	400.000	-0.016	400.002	0.920	1.054	1772224543.080
394	400.000	-0.019	400.001	0.605	4.502	1772224543.334
395	400.000	-0.027	399.997	0.542	1.587	1772224543.598
396	400.000	-0.022	400.000	0.532	0.410	1772224543.841
397	400.000	-0.004	399.998	0.320	3.651	1772224544.159
398	400.000	0.009	400.001	0.863	1.137	1772224544.416
399	400.000	0.011	399.999	0.673	4.271	1772224544.668
400	400.000	-0.015	400.001	0.673	1.585	1772224544.905
401	400.000	0.008	399.999	0.299	6.219	1772224545.154
402	400.000	-0.027	400.003	0.442	3.791	1772224545.389
403	400.000	0.002	400.002	0.957	1.229	1772224545.662
404	400.000	-0.024	400.002	0.682	4.577	1772224545.916
405	400.000	0.010	399.999	0.420	1.887	1772224546.174
406	400.000	0.006	399.997	0.284	6.059	1772224546.459
407	400.000	-0.007	400.000	0.456	3.742	1772224546.720
408	400.000	0.018	400.000	0.921	1.083	1772224546.957
409	400.000	-0.028	399.999	0.627	4.482	1772224547.227
410	400.000	-0.004	400.001	0.581	1.747	1772224547.482
411	400.000	0.053	399.999	0.404	6.235	1772224547.714
412	400.000	-0.003	400.003	0.461	4.029	1772224547.972
413	400.000	-0.002	400.001	1.047	1.144	1772224548.196
414	400.000	-0.001	400.001	0.574	4.698	1772224548.489
415	400.000	-0.024	399.999	0.503	1.591	1772224548.786
416	400.000	-0.001	400.000	0.329	5.738	1772224549.028
417	400.000	0.019	399.999	0.411	3.496	1772224549.253
418	400.000	0.011	400.001	0.832	1.183	1772224549.529
419	400.000	0.018	400.003	0.612	4.580	1772224549.762
420	400.000	0.006	400.000	0.360	2.044	1772224550.029
421	400.000	0.012	399.998	0.380	0.347	1772224550.276
422	400.000	0.015	400.003	0.525	3.898	1772224550.556
423	400.000	-0.022	400.001	0.886	1.133	1772224550.839
424	400.000	-0.016	400.000	0.722	4.482	1772224551.096
425	400.000	0.010	400.000	0.550	1.566	1772224551.334
426	400.000	-0.019	399.999	0.377	6.088	1772224551.599
427	400.000	0.045	400.000	0.363	3.546	1772224551.856
428	400.000	0.044	399.996	0.941	1.139	1772224552.108
429	400.000	0.021	399.999	0.603	4.411	1772224552.400
430	400.000	-0.033	400.000	0.854	1.374	1772224552.660
431	400.000	0.020	399.998	0.388	5.634	1772224552.890
432	400.000	-0.034	400.000	0.384	3.557	1772224553.153
433	400.000	0.005	400.002	0.880	1.036	1772224553.402
434	400.000	0.004	399.998	0.631	4.354	1772224553.676
435	400.000	0.000	399.997	0.650	1.481	1772224553.973
436	400.000	-0.015	400.003	0.320	5.150	1772224554.215
437	400.000	0.028	400.002	0.288	2.825	1772224554.463
438	400.000	-0.015	399.999	0.733	0.918	1772224554.740
439	400.000	0.008	400.002	0.584	4.016	1772224555.019
440	400.000	0.016	399.998	0.926	1.238	1772224555.282
441	400.000	0.006	400.002	0.581	4.651	1772224555.533
442	400.000	0.009	400.002	0.276	2.085	1772224555.793
443	400.000	0.012	399.998	0.445	0.652	1772224556.037
444	400.000	0.001	400.000	0.596	4.212	1772224556.288
445	400.000	-0.053	399.997	0.828	1.284	1772224556.517
446	400.000	0.012	400.001	0.330	5.351	1772224556.762
447	400.000	-0.009	400.002	0.343	3.455	1772224557.030
448	400.000	-0.007	399.999	0.655	1.097	1772224557.289
449	400.000	-0.030	400.001	0.551	3.960	1772224557.610
450	400.000	-0.002	400.005	0.784	1.126	1772224557.909
451	400.000	-0.009	399.998	0.728	4.416	1772224558.135
452	400.000	0.029	399.998	0.434	1.788	1772224558.409
453	400.000	-0.004	400.000	0.288	5.817	1772224558.648
454	400.000	0.011	400.001	0.410	3.938	1772224558.921
455	400.000	0.010	399.999	0.866	1.122	1772224559.132
456	400.000	0.024	400.001	0.647	4.582	1772224559.386
457	400.000	-0.016	400.000	0.459	1.770	1772224559.661
458	400.000	-0.019	399.997	0.407	0.333	1772224559.904
459	400.000	0.025	400.000	0.593	3.849	1772224560.157
460	400.000	0.053	400.001	0.930	1.102	1772224560.406
461	400.000	0.009	400.001	0.601	4.740	1772224560.672
462	400.000	-0.024	399.999	0.498	1.589	1772224560.929
463	400.000	0.002	399.996	0.458	0.476	1772224561.206
464	400.000	-0.044	400.002	0.428	3.726	1772224561.468
465	400.000	0.002	400.001	0.730	1.058	1772224561.764
466	400.000	0.063	399.996	0.669	4.275	1772224561.987
467	400.000	-0.008	400.002	0.709	1.457	1772224562.241
468	400.000	0.002	399.999	0.295	6.136	1772224562.491
469	400.000	0.019	399.997	0.405	3.598	1772224562.758
470	400.000	0.001	399.999	0.807	1.100	1772224563.013
471	400.000	0.009	400.002	0.652	4.496	1772224563.259
472	400.000	-0.002	400.002	0.638	1.646	1772224563.502
473	400.000	0.037	400.001	0.301	0.473	1772224563.734
474	400.000	-0.006	399.998	0.639	3.993	1772224564.008
475	400.000	-0.013	399.999	0.889	1.154	1772224564.259
476	400.000	0.007	399.999	0.627	4.612	1772224564.518
477	400.000	-0.004	400.000	0.664	1.531	1772224564.813
478	400.000	0.019	400.000	0.344	5.679	1772224565.072
479	400.000	-0.026	399.998	0.390	3.348	1772224565.298
480	400.000	0.016	399.997	1.041	1.161	1772224565.547
481	400.000	-0.008	400.001	0.650	4.739	1772224565.811
482	400.000	-0.008	399.998	0.435	1.807	1772224566.069
483	400.000	0.025	400.001	0.312	6.254	1772224566.327
484	400.000	0.009	400.002	0.288	3.448	1772224566.632
485	400.000	0.030	400.001	0.874	1.051	1772224566.855
486	400.000	0.033	399.999	0.608	4.405	1772224567.120
487	400.000	-0.010	400.002	0.676	1.454	1772224567.381
488	400.000	-0.001	400.001	0.376	4.872	1772224567.721
489	400.000	-0.008	400.001	0.580	1.577	1772224568.020
490	400.000	0.004	400.000	0.281	5.801	1772224568.255
491	400.000	0.015	400.002	0.528	3.797	1772224568.504
492	400.000	0.004	400.002	0.944	1.200	1772224568.763
493	400.000	0.006	399.999	0.583	4.406	1772224569.063
494	400.000	0.017	399.999	0.655	1.495	1772224569.294
495	400.000	0.030	399.997	0.247	5.778	1772224569.558
496	400.000	-0.009	399.999	0.299	3.026	1772224569.818
497	400.000	0.007	399.997	0.959	1.079	1772224570.061
498	400.000	-0.000	400.001	0.676	4.352	1772224570.322
499	400.000	0.008	400.000	0.569	1.662	1772224570.569
500	400.000	0.021	400.001	0.306	5.376	1772224570.821
501	400.000	0.021	399.997	0.445	3.928	1772224571.054
502	400.000	0.023	399.997	1.009	1.220	1772224571.326
503	400.000	0.014	399.998	0.691	4.403	1772224571.575
504	400.000	0.010	400.002	0.535	1.673	1772224571.864
505	400.000	-0.003	399.998	0.360	0.036	1772224572.105
506	400.000	-0.009	399.998	0.410	3.681	1772224572.369
507	400.000	-0.004	400.001	0.995	1.195	1772224572.627
508	400.000	-0.019	399.997	0.526	4.293	1772224572.949
509	400.000	-0.004	399.998	0.895	1.277	1772224573.249
510	400.000	-0.010	400.000	0.639	4.637	1772224573.498
511	400.000	-0.007	399.999	0.445	1.986	1772224573.752
512	400.000	-0.019	399.999	0.363	0.476	1772224573.991
513	400.000	0.017	400.000	0.550	4.093	1772224574.277
514	400.000	0.019	399.999	0.935	1.092	1772224574.554
515	400.000	-0.013	400.001	0.577	4.432	1772224574.826
516	400.000	0.035	399.998	0.450	1.653	1772224575.062
517	400.000	0.020	400.002	0.413	0.464	1772224575.308
518	400.000	0.013	399.999	0.362	3.791	1772224575.563
519	400.000	-0.001	399.999	0.990	1.225	1772224575.807
520	400.000	-0.014	400.000	0.435	4.672	1772224576.050
521	400.000	0.013	400.002	0.325	2.200	1772224576.309
522	400.000	-0.040	400.003	0.526	0.666	1772224576.570
523	400.000	0.020	400.001	0.539	3.860	1772224576.829
524	400.000	0.010	400.001	0.836	1.353	1772224577.061
525	400.000	-0.010	400.000	0.519	4.908	1772224577.334
526	400.000	-0.007	399.999	0.340	2.506	1772224577.601
527	400.000	0.001	399.999	0.616	0.688	1772224577.850
528	400.000	0.004	400.001	0.577	4.076	1772224578.087
529	400.000	0.009	400.000	0.808	1.339	1772224578.328
530	400.000	0.017	400.001	0.317	5.364	1772224578.575
531	400.000	0.012	400.003	0.386	3.412	1772224578.839
532	400.000	-0.009	400.003	0.752	0.952	1772224579.101
533	400.000	-0.021	400.003	0.532	4.120	1772224579.404
534	400.000	0.020	400.002	0.905	1.261	1772224579.630
535	400.000	0.020	400.000	0.457	4.942	1772224579.899
536	400.000	0.004	400.003	0.264	2.141	1772224580.152
537	400.000	-0.010	400.003	0.526	0.696	1772224580.449
538	400.000	0.031	399.999	0.573	3.919	1772224580.676
539	400.000	0.017	400.003	0.808	1.146	1772224580.955
540	400.000	0.021	399.999	0.603	4.651	1772224581.201
541	400.000	-0.021	400.000	0.190	2.479	1772224581.451
542	400.000	-0.005	399.997	0.337	0.615	1772224581.709
543	400.000	-0.007	400.000	0.547	4.189	1772224581.943
544	400.000	-0.006	399.997	0.828	1.259	1772224582.194
545	400.000	0.030	400.003	0.393	4.841	1772224582.457
546	400.000	-0.000	400.000	0.219	2.926	1772224582.725
547	400.000	-0.011	400.002	0.490	0.750	1772224583.025
548	400.000	-0.002	399.999	0.468	3.841	1772224583.245
549	400.000	-0.028	399.999	0.862	1.226	1772224583.501
550	400.000	0.001	399.999	0.469	4.700	1772224583.765
551	400.000	0.007	400.000	0.276	1.941	1772224584.000
552	400.000	-0.004	400.002	0.614	1.004	1772224584.272
553	400.000	0.014	400.001	0.546	4.030	1772224584.513
554	400.000	-0.021	400.001	0.762	1.333	1772224584.759
555	400.000	0.011	400.000	0.429	4.890	1772224585.012
556	400.000	-0.002	399.999	0.356	3.357	1772224585.246
557	400.000	0.003	399.998	0.849	1.121	1772224585.512
558	400.000	0.013	400.002	0.622	4.459	1772224585.763
559	400.000	0.002	399.998	0.642	1.444	1772224586.057
560	400.000	0.028	400.003	0.251	4.987	1772224586.289
561	400.000	-0.024	399.999	0.247	2.485	1772224586.574
562	400.000	0.004	400.003	0.782	0.999	1772224586.799
563	400.000	-0.007	400.002	0.581	4.256	1772224587.073
564	400.000	-0.003	400.004	0.725	1.330	1772224587.311
565	400.000	-0.011	400.000	0.352	5.368	1772224587.593
566	400.000	-0.000	400.001	0.205	2.206	1772224587.896
567	400.000	0.004	399.998	0.318	0.627	1772224588.180
568	400.000	0.002	399.999	0.420	3.783	1772224588.440
569	400.000	0.027	399.998	0.889	1.189	1772224588.695
570	400.000	-0.013	400.001	0.534	4.516	1772224588.952
571	400.000	-0.030	399.999	0.535	1.577	1772224589.247
572	400.000	0.011	400.002	0.332	5.744	1772224589.485
573	400.000	-0.030	399.999	0.358	3.655	1772224589.744
574	400.000	0.001	400.002	0.794	1.026	1772224590.000
575	400.000	-0.004	399.999	0.632	4.530	1772224590.254
576	400.000	-0.025	400.001	0.657	1.474	1772224590.530
577	400.000	-0.003	400.000	0.264	6.145	1772224590.755
578	400.000	-0.004	400.000	0.404	3.711	1772224591.018
579	400.000	-0.025	399.999	0.861	1.274	1772224591.284
580	400.000	0.014	399.998	0.679	4.485	1772224591.519
581	400.000	-0.035	400.002	0.426	1.842	1772224591.769
582	400.000	-0.022	399.999	0.386	0.723	1772224591.991
583	400.000	0.015	399.999	0.595	4.170	1772224592.267
584	400.000	-0.002	400.003	0.840	1.394	1772224592.527
585	400.000	0.015	399.997	0.579	4.958	1772224592.763
586	400.000	-0.002	400.001	0.274	2.501	1772224593.043
587	400.000	0.001	399.998	0.332	0.702	1772224593.346
588	400.000	-0.026	400.003	0.426	3.478	1772224593.574
589	400.000	-0.005	399.999	0.894	1.252	1772224593.843
590	400.000	0.019	400.001	0.686	4.805	1772224594.084
591	400.000	0.024	400.002	0.378	2.096	1772224594.309
592	400.000	0.016	400.001	0.710	0.986	1772224594.568
593	400.000	0.027	400.000	0.532	4.145	1772224594.813
594	400.000	0.029	400.002	0.841	1.255	1772224595.097
595	400.000	0.001	399.998	0.533	4.838	1772224595.317
596	400.000	-0.000	400.006	0.200	2.811	1772224595.581
597	400.000	-0.008	400.002	0.654	0.941	1772224595.827
598	400.000	-0.007	399.998	0.632	4.353	1772224596.053
599	400.000	-0.023	399.998	0.821	1.448	1772224596.323
600	400.000	-0.001	399.998	0.202	5.839	1772224596.564
601	400.000	-0.038	399.998	0.348	3.338	1772224596.812
602	400.000	-0.040	400.001	0.766	1.146	1772224597.071
603	400.000	0.004	400.000	0.648	4.404	1772224597.357
604	400.000	-0.008	399.999	0.724	1.373	1772224597.654
605	400.000	-0.005	400.001	0.585	4.902	1772224597.895
606	400.000	-0.026	400.001	0.272	2.276	1772224598.156
607	400.000	0.002	400.000	0.374	0.540	1772224598.455
608	400.000	-0.002	400.001	0.320	3.940	1772224598.712
609	400.000	0.004	400.000	0.792	1.254	1772224598.969
610	400.000	-0.017	399.999	0.603	4.525	1772224599.259
611	400.000	-0.025	399.999	0.658	1.367	1772224599.508
612	400.000	-0.030	399.999	0.322	6.274	1772224599.757
613	400.000	-0.025	400.000	0.403	3.276	1772224600.025
614	400.000	0.012	400.000	0.814	1.202	1772224600.268
615	400.000	-0.022	400.001	0.640	4.365	1772224600.503
616	400.000	0.013	400.003	0.581	1.481	1772224600.734
617	400.000	0.009	399.998	0.395	0.558	1772224601.028
618	400.000	0.030	400.001	0.425	3.781	1772224601.266
619	400.000	0.015	399.998	0.941	1.157	1772224601.513
620	400.000	0.029	400.001	0.620	4.607	1772224601.762
621	400.000	0.016	399.997	0.371	1.570	1772224602.022
622	400.000	-0.016	400.000	0.342	0.702	1772224602.282
623	400.000	0.001	399.997	0.469	4.062	1772224602.512
624	400.000	0.027	399.995	0.785	1.271	1772224602.780
625	400.000	0.001	399.999	0.529	4.709	1772224603.085
626	400.000	-0.002	400.000	0.685	1.451	1772224603.341
627	400.000	0.024	399.998	0.294	0.264	1772224603.583
628	400.000	0.004	400.001	0.345	3.722	1772224603.824
629	400.000	-0.012	399.999	0.905	1.202	1772224604.081
630	400.000	0.002	400.001	0.611	4.453	1772224604.339
631	400.000	-0.016	400.000	0.308	1.612	1772224604.576
632	400.000	0.028	400.001	0.403	0.817	1772224604.828
633	400.000	-0.008	399.999	0.420	3.898	1772224605.082
634	400.000	0.015	400.001	0.828	1.153	1772224605.313
635	400.000	0.018	399.997	0.394	4.900	1772224605.573
636	400.000	0.003	399.998	0.278	2.450	1772224605.812
637	400.000	-0.001	400.001	0.444	0.899	1772224606.095
638	400.000	0.014	400.000	0.455	4.093	1772224606.323
639	400.000	-0.011	400.002	0.845	1.128	1772224606.594
640	400.000	-0.035	399.999	0.517	4.858	1772224606.838
641	400.000	0.017	400.001	0.185	2.845	1772224607.086
642	400.000	-0.010	399.996	0.673	0.929	1772224607.336
643	400.000	0.026	399.999	0.712	4.433	1772224607.556
644	400.000	-0.017	400.000	0.653	1.334	1772224607.838
645	400.000	-0.005	400.000	0.209	5.880	1772224608.090
646	400.000	-0.023	400.003	0.265	2.249	1772224608.385
647	400.000	-0.011	399.999	0.493	0.965	1772224608.638
648	400.000	-0.024	400.003	0.569	4.237	1772224608.891
649	400.000	0.003	399.995	0.710	1.276	1772224609.132
650	400.000	-0.021	400.004	0.264	5.647	1772224609.382
651	400.000	0.000	399.998	0.220	2.912	1772224609.645
652	400.000	0.030	400.003	0.690	1.034	1772224609.889
653	400.000	0.004	399.998	0.633	4.375	1772224610.145
654	400.000	0.008	400.002	0.677	1.289	1772224610.395
655	400.000	-0.029	399.996	0.238	0.003	1772224610.638
656	400.000	-0.006	400.001	0.267	3.712	1772224610.889
657	400.000	0.017	400.001	0.740	0.983	1772224611.204
658	400.000	-0.004	400.002	0.657	4.270	1772224611.448
659	400.000	0.018	400.002	0.687	1.414	1772224611.695
660	400.000	0.008	400.002	0.252	5.590	1772224611.945
661	400.000	0.044	399.998	0.130	3.138	1772224612.224
662	400.000	0.039	400.001	0.644	0.962	1772224612.485
663	400.000	-0.016	399.996	0.556	4.274	1772224612.730
664	400.000	0.014	400.001	0.686	1.198	1772224612.947
665	400.000	0.055	400.002	0.158	0.182	1772224613.220
666	400.000	-0.027	400.002	0.359	3.356	1772224613.476
667	400.000	-0.007	400.002	0.859	1.039	1772224613.718
668	400.000	0.017	400.001	0.570	4.651	1772224613.965
669	400.000	0.019	399.999	0.538	1.438	1772224614.227
670	400.000	0.001	400.000	0.192	0.075	1772224614.470
671	400.000	0.008	400.002	0.454	3.891	1772224614.708
672	400.000	0.021	400.000	0.847	1.117	1772224614.975
673	400.000	0.014	399.998	0.515	4.784	1772224615.230
674	400.000	-0.016	400.001	0.484	1.464	1772224615.527
675	400.000	0.023	399.996	0.225	0.285	1772224615.753
676	400.000	-0.025	399.995	0.511	3.872	1772224616.036
677	400.000	0.001	400.001	0.729	1.154	1772224616.269
678	400.000	-0.033	400.001	0.621	4.508	1772224616.547
679	400.000	0.019	400.002	0.621	1.431	1772224616.823
680	400.000	-0.002	399.999	0.146	6.162	1772224617.094
681	400.000	-0.008	400.003	0.398	3.563	1772224617.320
682	400.000	-0.007	400.000	0.754	1.143	1772224617.596
683	400.000	0.008	399.998	0.563	4.480	1772224617.844
684	400.000	0.035	400.001	0.514	1.363	1772224618.118
685	400.000	-0.016	400.000	0.253	5.137	1772224618.379
686	400.000	-0.019	399.998	0.331	3.505	1772224618.621
687	400.000	-0.034	400.000	0.823	1.058	1772224618.879
688	400.000	0.006	399.998	0.496	4.606	1772224619.087
689	400.000	0.003	400.002	0.412	1.463	1772224619.365
690	400.000	-0.021	399.999	0.347	0.986	1772224619.600
691	400.000	-0.019	400.006	0.479	4.013	1772224619.864
692	400.000	0.009	400.000	0.875	1.135	1772224620.104
693	400.000	-0.009	400.000	0.411	4.597	1772224620.374
694	400.000	0.022	400.001	0.302	1.923	1772224620.611
695	400.000	0.010	400.002	0.531	1.087	1772224620.841
696	400.000	0.023	400.002	0.563	4.226	1772224621.108
697	400.000	0.016	399.999	0.772	1.102	1772224621.364
698	400.000	0.013	399.999	0.158	5.840	1772224621.615
699	400.000	0.008	399.997	0.154	2.827	1772224621.880
700	400.000	-0.014	399.999	0.494	0.833	1772224622.169
701	400.000	-0.003	399.997	0.554	4.215	1772224622.407
702	400.000	-0.037	400.000	0.727	1.128	1772224622.678
703	400.000	0.028	400.000	0.350	4.649	1772224622.905
704	400.000	-0.002	400.001	0.217	2.798	1772224623.174
705	400.000	-0.016	399.999	0.614	1.015	1772224623.430
706	400.000	-0.008	399.999	0.544	4.082	1772224623.731
707	400.000	-0.016	399.999	0.893	1.088	1772224623.986
708	400.000	0.013	399.998	0.463	4.858	1772224624.240
709	400.000	-0.000	399.998	0.252	2.271	1772224624.483
710	400.000	-0.016	400.002	0.453	0.960	1772224624.751
711	400.000	-0.018	400.006	0.501	4.145	1772224624.980
712	400.000	-0.006	400.002	0.714	1.254	1772224625.255
713	400.000	-0.004	400.001	0.486	4.664	1772224625.541
714	400.000	0.034	400.001	0.351	1.490	1772224625.793
715	400.000	-0.001	400.000	0.311	0.721	1772224626.038
716	400.000	0.014	400.000	0.345	4.159	1772224626.295
717	400.000	0.006	400.000	0.818	1.106	1772224626.543
718	400.000	0.036	400.000	0.481	4.870	1772224626.794
719	400.000	0.022	400.000	0.410	1.551	1772224627.072
720	400.000	0.026	400.002	0.197	0.632	1772224627.375
721	400.000	-0.027	400.001	0.224	3.418	1772224627.606
722	400.000	-0.030	400.002	0.877	1.059	1772224627.841
723	400.000	0.008	399.997	0.631	4.441	1772224628.107
724	400.000	-0.036	400.001	0.533	1.546	1772224628.384
725	400.000	-0.008	399.999	0.204	5.576	1772224628.659
726	400.000	-0.033	399.999	0.208	3.221	1772224628.931
727	400.000	0.002	399.999	0.689	1.050	1772224629.172
728	400.000	0.019	399.996	0.622	4.335	1772224629.437
729	400.000	-0.027	400.000	0.754	1.275	1772224629.720
730	400.000	0.034	400.000	0.390	4.721	1772224630.000
731	400.000	0.014	399.999	0.237	2.400	1772224630.229
732	400.000	0.023	400.000	0.621	0.872	1772224630.505
733	400.000	0.038	400.001	0.543	4.012	1772224630.781
734	400.000	-0.009	399.995	0.753	1.114	1772224631.074
735	400.000	-0.011	400.000	0.569	4.407	1772224631.375
736	400.000	-0.001	400.000	0.780	1.269	1772224631.612
737	400.000	-0.023	400.001	0.171	5.536	1772224631.840
738	400.000	0.021	400.002	0.349	3.434	1772224632.113
739	400.000	-0.009	400.002	0.888	1.003	1772224632.366
740	400.000	0.029	400.003	0.607	4.447	1772224632.618
741	400.000	-0.029	399.998	0.698	1.414	1772224632.866
742	400.000	0.021	400.000	0.275	0.681	1772224633.112
743	400.000	0.023	399.997	0.523	4.118	1772224633.361
744	400.000	0.049	400.004	0.891	1.180	1772224633.594
745	400.000	0.015	399.996	0.467	4.655	1772224633.878
746	400.000	-0.011	399.997	0.555	1.563	1772224634.174
747	400.000	-0.014	399.998	0.199	5.321	1772224634.419
748	400.000	0.046	400.002	0.404	3.996	1772224634.653
749	400.000	0.010	400.001	0.910	1.174	1772224634.913
750	400.000	0.013	399.999	0.521	4.769	1772224635.155
751	400.000	0.003	399.999	0.480	1.409	1772224635.425
752	400.000	0.023	399.999	0.218	0.589	1772224635.670
753	400.000	0.003	399.998	0.468	3.981	1772224635.907
754	400.000	-0.029	399.999	0.886	1.096	1772224636.167
755	400.000	-0.020	400.001	0.392	4.794	1772224636.427
756	400.000	-0.017	400.001	0.326	1.550	1772224636.709
757	400.000	0.009	400.000	0.400	0.827	1772224636.952
758	400.000	0.036	399.997	0.550	4.130	1772224637.193
759	400.000	0.005	400.005	0.850	1.141	1772224637.419
760	400.000	0.005	400.000	0.291	4.683	1772224637.691
761	400.000	-0.008	400.000	0.326	1.947	1772224637.939
762	400.000	0.018	400.002	0.627	0.981	1772224638.199
763	400.000	-0.002	400.000	0.621	4.283	1772224638.422
764	400.000	-0.024	400.001	0.786	1.217	1772224638.674
765	400.000	-0.013	400.000	0.129	5.651	1772224638.943
766	400.000	0.001	400.000	0.221	2.602	1772224639.195
767	400.000	-0.034	399.999	0.567	0.964	1772224639.503
768	400.000	0.019	400.000	0.572	4.252	1772224639.786
769	400.000	-0.030	399.998	0.855	1.041	1772224640.044
770	400.000	-0.016	400.003	0.538	4.570	1772224640.291
771	400.000	0.033	399.997	0.438	1.369	1772224640.532
772	400.000	-0.039	400.002	0.643	1.140	1772224640.761
773	400.000	-0.005	400.001	0.619	4.254	1772224641.042
774	400.000	0.009	400.003	0.914	1.143	1772224641.294
775	400.000	0.010	400.002	0.270	4.465	1772224641.529
776	400.000	-0.004	399.998	0.201	2.463	1772224641.785
777	400.000	-0.017	400.001	0.898	1.001	1772224642.013
778	400.000	0.023	400.003	0.586	4.492	1772224642.286
779	400.000	0.016	399.998	0.799	1.242	1772224642.518
780	400.000	0.030	400.000	0.231	5.073	1772224642.828
781	400.000	-0.007	399.999	0.281	2.662	1772224643.069
782	400.000	0.022	399.999	0.588	1.048	1772224643.325
783	400.000	-0.001	400.000	0.584	4.461	1772224643.559
784	400.000	-0.002	399.995	0.758	1.291	1772224643.829
785	400.000	0.024	400.001	0.313	5.163	1772224644.083
786	400.000	0.013	400.002	0.232	3.321	1772224644.358
787	400.000	-0.025	400.000	0.558	0.919	1772224644.628
788	400.000	0.002	399.997	0.532	4.349	1772224644.907
789	400.000	0.002	400.003	0.907	1.121	1772224645.131
790	400.000	0.026	400.001	0.382	4.890	1772224645.402
791	400.000	-0.004	400.000	0.276	2.588	1772224645.633
792	400.000	0.015	400.000	0.761	1.107	1772224645.881
793	400.000	0.005	399.998	0.637	4.447	1772224646.158
794	400.000	-0.001	399.998	0.720	1.273	1772224646.377
795	400.000	-0.039	400.001	0.237	6.266	1772224646.652
796	400.000	-0.007	400.000	0.281	3.109	1772224646.870
797	400.000	0.006	399.999	0.852	1.092	1772224647.130
798	400.000	0.014	399.999	0.595	4.385	1772224647.407
799	400.000	-0.017	399.997	0.726	1.374	1772224647.650
800	400.000	-0.035	400.000	0.206	0.503	1772224647.883
801	400.000	0.057	400.001	0.620	4.087	1772224648.111
802	400.000	-0.003	400.002	0.924	1.236	1772224648.387
803	400.000	0.017	399.998	0.612	4.462	1772224648.638
804	400.000	0.015	399.999	0.407	1.785	1772224648.903
805	400.000	-0.007	399.996	0.489	0.914	1772224649.132
806	400.000	0.002	400.000	0.547	4.177	1772224649.391
807	400.000	-0.006	399.999	0.916	1.137	1772224649.631
808	400.000	0.011	400.000	0.452	4.579	1772224649.901
809	400.000	0.030	400.001	0.204	1.845	1772224650.152
810	400.000	-0.007	399.996	0.688	1.080	1772224650.363
811	400.000	0.008	399.998	0.612	4.412	1772224650.650
812	400.000	-0.009	400.001	0.832	1.238	1772224650.876
813	400.000	0.031	399.998	0.164	5.511	1772224651.143
814	400.000	-0.002	400.000	0.246	3.459	1772224651.376
815	400.000	-0.011	400.001	0.881	0.956	1772224651.650
816	400.000	0.035	400.001	0.660	4.323	1772224651.899
817	400.000	0.007	400.002	0.725	1.350	1772224652.147
818	400.000	-0.020	400.000	0.161	0.114	1772224652.381
819	400.000	-0.003	399.998	0.386	3.803	1772224652.632
820	400.000	0.000	400.002	0.892	0.930	1772224652.909
821	400.000	-0.018	400.001	0.576	4.452	1772224653.218
822	400.000	-0.036	400.002	0.867	1.103	1772224653.509
823	400.000	-0.004	399.997	0.446	4.806	1772224653.770
824	400.000	0.009	400.003	0.450	1.463	1772224654.006
825	400.000	0.006	400.002	0.538	0.895	1772224654.270
826	400.000	0.000	400.001	0.590	4.152	1772224654.510
827	400.000	0.010	399.999	0.880	1.113	1772224654.783
828	400.000	-0.001	399.999	0.547	4.609	1772224655.036
829	400.000	-0.032	399.998	0.466	1.595	1772224655.335
830	400.000	-0.008	400.000	0.374	0.658	1772224655.573
831	400.000	0.025	399.998	0.583	3.938	1772224655.842
832	400.000	0.016	400.000	1.061	0.971	1772224656.077
833	400.000	-0.004	400.000	0.423	4.783	1772224656.320
834	400.000	-0.013	400.001	0.357	1.523	1772224656.596
835	400.000	-0.006	400.001	0.598	0.950	1772224656.837
836	400.000	-0.020	400.000	0.593	4.210	1772224657.093
837	400.000	-0.004	400.000	0.998	1.106	1772224657.315
838	400.000	-0.010	400.001	0.264	4.905	1772224657.592
839	400.000	-0.008	399.999	0.287	1.997	1772224657.838
840	400.000	-0.023	400.000	0.946	0.898	1772224658.082
841	400.000	-0.023	399.999	0.654	4.401	1772224658.328
842	400.000	0.010	399.998	0.761	1.284	1772224658.563
843	400.000	0.006	399.998	0.193	0.290	1772224658.815
844	400.000	0.001	400.002	0.393	3.508	1772224659.074
845	400.000	-0.027	400.004	0.947	0.988	1772224659.332
846	400.000	-0.027	400.004	0.560	4.697	1772224659.561
847	400.000	0.009	400.000	0.505	1.753	1772224659.836
848	400.000	-0.001	399.997	0.208	0.510	1772224660.093
849	400.000	0.043	400.001	0.328	3.501	1772224660.395
850	400.000	-0.039	400.000	0.872	1.042	1772224660.618
851	400.000	0.030	400.004	0.564	4.484	1772224660.901
852	400.000	-0.000	400.002	0.706	1.292	1772224661.151
853	400.000	0.010	400.000	0.248	6.247	1772224661.422
854	400.000	-0.019	399.999	0.292	3.557	1772224661.656
855	400.000	0.011	399.999	0.879	1.067	1772224661.918
856	400.000	0.035	400.001	0.619	4.416	1772224662.174
857	400.000	0.005	400.001	0.737	1.261	1772224662.460
858	400.000	0.023	399.997	0.176	5.123	1772224662.713
859	400.000	0.023	399.998	0.272	3.084	1772224662.991
860	400.000	-0.002	400.003	0.439	0.926	1772224663.291
861	400.000	0.006	400.002	0.528	4.173	1772224663.530
862	400.000	-0.019	400.002	0.900	1.186	1772224663.756
863	400.000	-0.024	400.001	0.207	5.247	1772224664.031
864	400.000	-0.038	399.998	0.277	2.910	1772224664.283
865	400.000	-0.021	399.997	0.796	0.997	1772224664.531
866	400.000	0.008	400.000	0.620	4.544	1772224664.775
867	400.000	0.006	400.002	0.731	1.351	1772224665.036
868	400.000	0.007	400.005	0.154	5.242	1772224665.291
869	400.000	-0.002	399.999	0.409	3.751	1772224665.523
870	400.000	-0.034	400.001	0.940	1.062	1772224665.796
871	400.000	-0.008	399.997	0.631	4.542	1772224666.026
872	400.000	-0.033	400.000	0.417	1.852	1772224666.293
873	400.000	-0.021	400.002	0.423	0.976	1772224666.562
874	400.000	-0.037	400.005	0.407	3.788	1772224666.848
875	400.000	-0.023	400.002	1.015	1.018	1772224667.074
876	400.000	0.008	400.002	0.546	4.523	1772224667.351
877	400.000	-0.001	399.998	0.685	1.318	1772224667.586
878	400.000	0.029	399.999	0.262	0.785	1772224667.857
879	400.000	-0.016	400.003	0.408	3.754	1772224668.087
880	400.000	-0.025	400.002	0.950	1.073	1772224668.349
881	400.000	-0.005	400.000	0.528	4.568	1772224668.602
882	400.000	0.034	400.003	0.344	1.872	1772224668.848
883	400.000	-0.008	400.000	0.391	0.912	1772224669.095
884	400.000	0.024	400.000	0.553	4.286	1772224669.342
885	400.000	-0.013	400.000	0.788	1.207	1772224669.607
886	400.000	0.011	400.001	0.423	4.645	1772224669.867
887	400.000	-0.031	399.998	0.357	1.692	1772224670.184
888	400.000	-0.014	399.998	0.113	0.111	1772224670.484
889	400.000	-0.029	400.001	0.244	2.937	1772224670.730
890	400.000	-0.014	400.002	0.689	1.002	1772224671.027
891	400.000	-0.015	400.003	0.686	4.263	1772224671.256
892	400.000	0.019	400.002	0.847	1.281	1772224671.547
893	400.000	0.015	399.999	0.490	4.820	1772224671.834
894	400.000	0.029	400.003	0.552	1.571	1772224672.081
895	400.000	0.007	400.002	0.417	0.959	1772224672.311
896	400.000	0.001	399.999	0.535	4.331	1772224672.588
897	400.000	-0.004	400.000	0.992	1.174	1772224672.832
898	400.000	0.007	400.001	0.448	4.728	1772224673.108
899	400.000	-0.006	400.002	0.439	1.915	1772224673.322
900	400.000	0.024	400.001	0.602	1.042	1772224673.615
901	400.000	0.033	400.001	0.490	4.226	1772224673.883
902	400.000	-0.004	400.002	0.926	1.159	1772224674.176
903	400.000	-0.014	400.004	0.720	4.492	1772224674.471
904	400.000	-0.004	400.003	0.867	1.234	1772224674.731
905	400.000	0.024	399.999	0.251	5.049	1772224674.981
906	400.000	-0.034	400.000	0.289	3.192	1772224675.232
907	400.000	0.019	399.999	0.926	1.109	1772224675.458
908	400.000	0.054	399.999	0.647	4.492	1772224675.708
909	400.000	-0.000	399.996	0.525	1.464	1772224675.959
910	400.000	0.005	400.001	0.108	0.057	1772224676.235
911	400.000	-0.042	399.998	0.324	3.768	1772224676.465
912	400.000	-0.027	400.002	0.948	1.088	1772224676.724
913	400.000	0.028	399.999	0.510	4.459	1772224676.971
914	400.000	-0.010	399.997	0.542	1.538	1772224677.228
915	400.000	-0.021	399.999	0.422	1.029	1772224677.472
916	400.000	-0.001	399.999	0.549	4.270	1772224677.731
917	400.000	0.012	400.003	0.909	1.105	1772224678.047
918	400.000	0.004	399.997	0.705	4.395	1772224678.340
919	400.000	0.024	399.999	0.852	1.229	1772224678.578
920	400.000	0.022	399.998	0.208	5.081	1772224678.853
921	400.000	0.041	400.003	0.234	3.657	1772224679.081
922	400.000	-0.029	400.002	0.742	1.138	1772224679.361
923	400.000	-0.033	400.001	0.660	4.440	1772224679.621
924	400.000	0.010	400.001	0.891	1.199	1772224679.921
925	400.000	-0.015	399.997	0.451	4.589	1772224680.139
926	400.000	0.014	400.000	0.211	2.707	1772224680.413
927	400.000	-0.030	399.997	0.503	0.937	1772224680.664
928	400.000	0.007	400.000	0.427	4.130	1772224680.976
929	400.000	0.003	400.000	0.961	1.092	1772224681.193
930	400.000	0.024	399.999	0.451	4.583	1772224681.471
931	400.000	0.002	400.001	0.448	1.769	1772224681.705
932	400.000	0.030	400.000	0.690	0.991	1772224681.970
933	400.000	-0.046	400.000	0.631	4.396	1772224682.209
934	400.000	0.023	400.004	0.917	1.168	1772224682.457
935	400.000	-0.037	399.999	0.266	5.095	1772224682.715
936	400.000	0.009	399.999	0.324	3.378	1772224682.956
937	400.000	-0.017	399.999	0.881	1.125	1772224683.214
938	400.000	0.001	399.999	0.712	4.484	1772224683.446
939	400.000	0.033	399.999	0.715	1.232	1772224683.729
940	400.000	-0.001	399.996	0.198	5.261	1772224683.969
941	400.000	0.037	400.001	0.344	3.932	1772224684.226
942	400.000	-0.013	400.002	0.792	1.107	1772224684.483
943	400.000	0.033	399.998	0.665	4.525	1772224684.712
944	400.000	0.026	400.002	0.623	1.372	1772224684.977
945	400.000	-0.002	400.000	0.203	0.791	1772224685.199
946	400.000	-0.023	399.999	0.474	4.134	1772224685.490
947	400.000	0.012	399.999	0.848	1.071	1772224685.789
948	400.000	-0.013	400.001	0.704	4.274	1772224686.037
949	400.000	-0.004	400.000	0.748	1.266	1772224686.321
950	400.000	0.005	399.997	0.122	4.481	1772224686.564
951	400.000	0.036	399.995	0.275	3.737	1772224686.797
952	400.000	-0.011	400.000	0.868	1.130	1772224687.036
953	400.000	0.011	400.000	0.540	4.513	1772224687.286
954	400.000	0.008	399.996	0.709	1.355	1772224687.547
955	400.000	0.007	400.000	0.274	0.838	1772224687.783
956	400.000	0.004	400.001	0.465	4.062	1772224688.062
957	400.000	0.019	399.998	0.877	1.114	1772224688.343
958	400.000	-0.008	400.000	0.523	4.408	1772224688.610
959	400.000	-0.020	400.002	0.840	1.183	1772224688.867
960	400.000	-0.020	400.000	0.027	0.127	1772224689.124
961	400.000	-0.003	400.000	0.269	3.884	1772224689.344
962	400.000	0.009	400.003	0.949	1.152	1772224689.614
963	400.000	-0.038	399.998	0.593	4.434	1772224689.880
964	400.000	-0.001	400.002	0.667	1.309	1772224690.108
965	400.000	0.045	399.999	0.371	0.967	1772224690.351
966	400.000	0.030	400.001	0.555	4.071	1772224690.600
967	400.000	-0.004	399.999	1.011	1.165	1772224690.859
968	400.000	0.006	399.999	0.462	4.675	1772224691.109
969	400.000	-0.042	399.999	0.259	2.097	1772224691.368
970	400.000	0.022	399.999	0.471	1.204	1772224691.623
971	400.000	-0.044	400.001	0.502	4.418	1772224691.917
972	400.000	-0.005	399.999	1.040	1.135	1772224692.146
973	400.000	0.007	400.001	0.466	4.580	1772224692.442
974	400.000	0.008	400.000	0.655	1.339	1772224692.761
975	400.000	-0.028	400.000	0.337	4.721	1772224693.054
976	400.000	-0.043	400.002	0.403	1.748	1772224693.308
977	400.000	0.018	400.002	0.708	1.059	1772224693.541
978	400.000	0.018	400.000	0.598	4.272	1772224693.808
979	400.000	-0.003	400.000	0.887	1.204	1772224694.067
980	400.000	-0.006	399.999	0.366	4.629	1772224694.364
981	400.000	-0.008	400.002	0.451	1.690	1772224694.580
982	400.000	0.022	400.000	0.552	1.088	1772224694.853
983	400.000	0.017	400.000	0.582	4.236	1772224695.099
984	400.000	0.008	400.001	0.902	1.138	1772224695.370
985	400.000	0.007	400.003	0.478	4.656	1772224695.609
986	400.000	-0.009	400.003	0.259	2.301	1772224695.839
987	400.000	-0.001	400.003	0.566	1.251	1772224696.123
988	400.000	0.014	400.001	0.639	4.374	1772224696.387
989	400.000	0.017	400.001	0.864	1.121	1772224696.649
990	400.000	0.014	400.001	0.297	4.613	1772224696.894
991	400.000	0.005	399.998	0.235	2.443	1772224697.147
992	400.000	0.026	400.000	0.643	1.069	1772224697.377
993	400.000	0.037	400.000	0.600	4.225	1772224697.647
994	400.000	0.019	399.997	0.916	1.108	1772224697.901
995	400.000	0.005	399.998	0.158	4.765	1772224698.134
996	400.000	0.007	400.003	0.291	3.568	1772224698.397
997	400.000	-0.027	399.998	0.861	1.099	1772224698.660
998	400.000	-0.002	399.997	0.625	4.345	1772224698.941
999	400.000	-0.032	399.997	0.851	1.163	1772224699.208
1000	400.000	0.051	400.002	0.137	4.661	1772224699.439
1001	400.000	-0.026	399.997	0.246	3.651	1772224699.702
1002	400.000	0.020	400.000	0.857	1.207	1772224699.949
1003	400.000	-0.042	400.000	0.587	4.536	1772224700.183
1004	400.000	0.009	400.000	0.587	1.373	1772224700.468
1005	400.000	-0.019	399.999	0.177	1.241	1772224700.695
1006	400.000	0.004	400.003	0.507	4.204	1772224700.964
1007	400.000	-0.020	400.001	0.966	1.015	1772224701.209
1008	400.000	0.014	400.001	0.447	4.402	1772224701.484
1009	400.000	-0.029	399.996	0.617	1.166	1772224701.766
1010	400.000	-0.002	400.000	0.138	0.493	1772224702.025
1011	400.000	0.022	399.999	0.352	4.140	1772224702.262
1012	400.000	-0.020	399.999	0.813	1.046	1772224702.535
1013	400.000	0.002	399.997	0.484	4.555	1772224702.760
1014	400.000	-0.016	400.002	0.422	1.461	1772224703.016
1015	400.000	0.013	399.999	0.341	1.328	1772224703.269
1016	400.000	0.017	400.000	0.566	4.113	1772224703.533
1017	400.000	-0.016	399.999	0.778	1.070	1772224703.826
1018	400.000	-0.020	399.998	0.593	4.360	1772224704.074
1019	400.000	0.004	399.999	0.586	1.175	1772224704.327
1020	400.000	-0.004	400.001	0.082	1.526	1772224704.582
1021	400.000	0.016	400.003	0.233	3.778	1772224704.831
1022	400.000	0.021	400.001	1.006	1.104	1772224705.055
1023	400.000	-0.005	399.998	0.477	4.592	1772224705.324
1024	400.000	0.015	400.001	0.380	1.318	1772224705.577
1025	400.000	0.029	400.002	0.492	1.048	1772224705.850
1026	400.000	0.025	400.002	0.582	4.230	1772224706.075
1027	400.000	-0.007	400.001	0.885	1.074	1772224706.335
1028	400.000	0.013	399.999	0.484	4.509	1772224706.594
1029	400.000	-0.004	400.003	0.130	2.188	1772224706.867
1030	400.000	-0.020	400.002	0.213	1.156	1772224707.154
1031	400.000	0.033	399.997	0.548	4.080	1772224707.411
1032	400.000	0.001	400.001	0.978	1.063	1772224707.637
1033	400.000	0.035	399.997	0.435	4.440	1772224707.896
1034	400.000	0.024	399.999	0.320	1.595	1772224708.157
1035	400.000	0.009	400.001	0.477	1.109	1772224708.414
1036	400.000	-0.032	399.997	0.486	4.194	1772224708.662
1037	400.000	0.039	400.003	1.106	1.182	1772224708.886
1038	400.000	0.032	400.001	0.254	4.611	1772224709.154
1039	400.000	-0.021	399.998	0.076	2.361	1772224709.396
1040	400.000	0.027	399.997	0.660	1.262	1772224709.674
1041	400.000	0.009	399.996	0.575	4.478	1772224709.903
1042	400.000	0.016	399.998	0.773	1.208	1772224710.159
1043	400.000	-0.034	400.002	0.093	4.270	1772224710.431
1044	400.000	0.008	400.003	0.171	1.762	1772224710.706
1045	400.000	-0.001	400.000	0.522	1.192	1772224710.954
1046	400.000	0.007	399.999	0.617	4.279	1772224711.248
1047	400.000	0.006	399.998	0.919	1.107	1772224711.486
1048	400.000	0.005	400.000	0.317	4.506	1772224711.756
1049	400.000	-0.036	400.003	0.315	1.468	1772224712.012
1050	400.000	0.034	399.999	0.237	1.066	1772224712.313
1051	400.000	-0.026	399.999	0.437	4.119	1772224712.533
1052	400.000	-0.001	400.002	0.846	1.084	1772224712.817
1053	400.000	0.004	400.001	0.532	4.531	1772224713.057
1054	400.000	0.012	399.996	0.363	1.215	1772224713.320
1055	400.000	0.036	400.000	0.103	1.119	1772224713.578
1056	400.000	0.015	399.999	0.555	4.326	1772224713.823
1057	400.000	0.013	400.000	0.844	1.087	1772224714.089
1058	400.000	0.017	400.000	0.436	4.496	1772224714.323
1059	400.000	0.028	400.001	0.246	1.903	1772224714.579
1060	400.000	-0.010	399.997	0.480	0.997	1772224714.798
1061	400.000	-0.018	400.001	0.676	4.414	1772224715.078
1062	400.000	0.028	400.002	0.799	1.196	1772224715.326
1063	400.000	0.010	399.998	0.304	4.399	1772224715.588
1064	400.000	0.036	400.000	0.078	1.694	1772224715.872
1065	400.000	-0.009	399.999	0.354	1.044	1772224716.131
1066	400.000	0.006	399.998	0.665	4.364	1772224716.369
1067	400.000	-0.011	399.998	0.870	1.079	1772224716.647
1068	400.000	-0.027	400.002	0.405	4.538	1772224716.910
1069	400.000	-0.008	399.998	0.388	1.443	1772224717.165
1070	400.000	-0.021	400.003	0.422	0.838	1772224717.404
1071	400.000	-0.026	399.998	0.568	4.468	1772224717.655
1072	400.000	0.035	400.001	0.908	1.165	1772224717.899
1073	400.000	-0.009	399.998	0.155	4.687	1772224718.173
1074	400.000	0.004	399.998	0.298	1.557	1772224718.464
1075	400.000	-0.025	400.003	0.280	1.098	1772224718.719
1076	400.000	-0.002	399.999	0.405	4.209	1772224718.973
1077	400.000	-0.004	400.000	0.965	1.137	1772224719.214
1078	400.000	0.007	400.002	0.397	4.376	1772224719.471
1079	400.000	0.030	400.001	0.237	1.519	1772224719.731
1080	400.000	0.006	400.000	0.368	1.202	1772224719.983
1081	400.000	0.018	399.999	0.543	4.407	1772224720.210
1082	400.000	0.045	399.995	0.951	1.104	1772224720.484
1083	400.000	0.007	400.000	0.348	4.387	1772224720.725
1084	400.000	0.002	400.000	0.197	3.510	1772224720.959
1085	400.000	-0.025	399.997	0.787	1.017	1772224721.223
1086	400.000	0.009	399.998	0.611	4.442	1772224721.461
1087	400.000	0.003	400.001	0.683	1.100	1772224721.717
1088	400.000	-0.009	399.998	0.060	5.077	1772224721.954
1089	400.000	-0.018	400.003	0.443	4.123	1772224722.211
1090	400.000	0.006	400.001	0.906	0.973	1772224722.475
1091	400.000	-0.032	399.998	0.655	4.558	1772224722.723
1092	400.000	-0.010	400.001	0.589	1.242	1772224723.005
1093	400.000	-0.034	400.000	0.227	4.512	1772224723.310
1094	400.000	-0.003	400.002	0.221	3.031	1772224723.541
1095	400.000	-0.008	400.000	0.622	1.063	1772224723.821
1096	400.000	-0.001	399.998	0.589	4.339	1772224724.108
1097	400.000	0.019	400.002	0.906	1.072	1772224724.370
1098	400.000	0.015	399.999	0.396	4.202	1772224724.588
1099	400.000	0.021	400.002	0.144	1.449	1772224724.859
1100	400.000	0.015	400.004	0.578	1.124	1772224725.115
1101	400.000	-0.005	400.000	0.566	4.303	1772224725.397
1102	400.000	-0.023	399.999	0.939	1.057	1772224725.663
1103	400.000	-0.027	399.999	0.545	4.448	1772224725.913
1104	400.000	0.011	400.001	0.217	1.568	1772224726.147
1105	400.000	0.013	400.001	0.311	1.104	1772224726.444
1106	400.000	-0.002	400.000	0.390	4.319	1772224726.736
1107	400.000	-0.010	400.002	0.761	1.027	1772224726.992
1108	400.000	-0.028	400.001	0.554	4.453	1772224727.273
1109	400.000	-0.018	399.999	0.836	0.997	1772224727.566
1110	400.000	0.012	400.000	0.439	4.654	1772224727.868
1111	400.000	-0.001	400.002	0.305	1.364	1772224728.110
1112	400.000	0.003	400.005	0.243	0.853	1772224728.364
1113	400.000	0.018	400.000	0.593	4.181	1772224728.600
1114	400.000	-0.015	399.998	0.783	0.973	1772224728.865
1115	400.000	0.020	400.000	0.388	4.478	1772224729.118
1116	400.000	-0.017	400.001	0.136	2.216	1772224729.364
1117	400.000	0.013	400.002	0.601	1.104	1772224729.621
1118	400.000	0.030	400.000	0.540	4.331	1772224729.853
1119	400.000	0.028	399.999	0.787	1.019	1772224730.106
1120	400.000	0.009	400.002	0.231	4.782	1772224730.357
1121	400.000	-0.024	400.001	0.280	4.058	1772224730.627
1122	400.000	0.010	399.999	0.559	0.960	1772224730.908
1123	400.000	-0.040	399.998	0.669	4.414	1772224731.174
1124	400.000	0.021	399.996	0.876	0.982	1772224731.403
1125	400.000	0.013	400.002	0.096	5.098	1772224731.666
1126	400.000	0.004	399.998	0.103	3.681	1772224731.910
1127	400.000	-0.001	400.000	0.637	1.033	1772224732.191
1128	400.000	0.007	399.999	0.568	4.357	1772224732.436
1129	400.000	-0.018	399.999	0.774	0.998	1772224732.697
1130	400.000	-0.031	400.001	0.066	5.362	1772224732.951
1131	400.000	0.014	399.998	0.131	4.305	1772224733.219
1132	400.000	-0.030	400.001	0.750	1.118	1772224733.483
1133	400.000	0.023	399.999	0.471	4.184	1772224733.789
1134	400.000	0.035	400.003	0.878	1.102	1772224734.014
1135	400.000	0.006	399.996	0.310	4.680	1772224734.269
1136	400.000	-0.009	399.997	0.141	3.047	1772224734.516
1137	400.000	-0.013	400.003	0.693	1.043	1772224734.767
1138	400.000	0.015	399.998	0.589	4.441	1772224735.013
1139	400.000	0.007	399.999	0.604	1.080	1772224735.266
1140	400.000	0.035	400.000	0.051	6.130	1772224735.506
1141	400.000	0.039	400.000	0.405	3.994	1772224735.762
1142	400.000	-0.004	400.002	0.907	1.022	1772224736.030
1143	400.000	0.004	400.001	0.600	4.469	1772224736.316
1144	400.000	-0.016	400.000	0.687	1.052	1772224736.580
1145	400.000	-0.019	400.001	0.156	4.449	1772224736.834
1146	400.000	-0.003	399.999	0.020	2.174	1772224737.141
1147	400.000	-0.036	399.999	0.680	1.058	1772224737.378
1148	400.000	0.004	399.998	0.674	4.408	1772224737.630
1149	400.000	0.009	400.000	0.749	0.997	1772224737.876
1150	400.000	-0.028	399.998	0.056	4.841	1772224738.146
1151	400.000	0.019	399.999	0.160	4.044	1772224738.382
1152	400.000	-0.025	399.997	0.875	1.064	1772224738.642
1153	400.000	-0.002	400.000	0.528	4.332	1772224738.895
1154	400.000	0.015	399.999	0.601	1.184	1772224739.110
1155	400.000	0.049	399.999	0.268	1.168	1772224739.398
1156	400.000	-0.036	399.998	0.359	4.139	1772224739.676
1157	400.000	-0.009	400.004	0.730	1.023	1772224739.953
1158	400.000	0.033	399.999	0.621	4.382	1772224740.225
1159	400.000	0.042	399.999	0.951	1.010	1772224740.485
1160	400.000	0.055	400.000	0.268	4.302	1772224740.729
1161	400.000	0.018	400.001	0.167	3.655	1772224740.968
1162	400.000	0.028	399.998	0.823	1.064	1772224741.201
1163	400.000	-0.040	400.000	0.595	4.417	1772224741.484
1164	400.000	-0.026	400.002	0.650	1.161	1772224741.717
1165	400.000	0.004	399.999	0.095	1.366	1772224741.970
1166	400.000	0.009	399.999	0.440	4.179	1772224742.225
1167	400.000	0.020	400.001	0.862	1.134	1772224742.469
1168	400.000	0.028	400.005	0.486	4.555	1772224742.720
1169	400.000	0.022	399.999	0.208	1.964	1772224742.970
1170	400.000	0.017	400.002	0.517	1.101	1772224743.222
1171	400.000	0.003	400.001	0.646	4.171	1772224743.445
1172	400.000	0.012	399.999	0.840	1.142	1772224743.710
1173	400.000	-0.008	400.001	0.223	4.589	1772224743.979
1174	400.000	-0.007	399.996	0.185	3.946	1772224744.228
1175	400.000	-0.016	399.998	0.569	1.152	1772224744.494
1176	400.000	0.012	400.002	0.445	4.357	1772224744.785
1177	400.000	0.004	400.002	0.942	1.091	1772224745.012
1178	400.000	-0.000	400.000	0.303	4.468	1772224745.287
1179	400.000	0.008	399.998	0.213	1.596	1772224745.543
1180	400.000	0.004	399.999	0.224	1.280	1772224745.844
1181	400.000	0.022	400.001	0.389	3.965	1772224746.093
1182	400.000	0.011	399.999	0.783	0.888	1772224746.351
1183	400.000	0.008	400.003	0.505	4.396	1772224746.588
1184	400.000	0.038	399.997	0.422	1.162	1772224746.872
1185	400.000	0.002	400.000	0.088	4.721	1772224747.121
1186	400.000	0.018	400.004	0.094	3.787	1772224747.424
1187	400.000	-0.023	400.002	0.647	1.171	1772224747.655
1188	400.000	-0.014	400.003	0.497	4.179	1772224747.957
1189	400.000	-0.008	400.003	0.831	0.998	1772224748.274
1190	400.000	0.010	400.001	0.594	4.243	1772224748.585
1191	400.000	-0.021	399.999	0.895	0.925	1772224748.869
1192	400.000	0.037	400.000	0.393	4.549	1772224749.139
1193	400.000	-0.008	400.000	0.270	1.363	1772224749.361
1194	400.000	0.018	399.996	0.559	0.972	1772224749.621
1195	400.000	0.003	399.998	0.512	4.224	1772224749.878
1196	400.000	0.014	400.001	0.944	1.017	1772224750.130
1197	400.000	0.013	400.002	0.185	4.243	1772224750.375
1198	400.000	0.010	400.001	0.180	3.175	1772224750.601
1199	400.000	-0.001	400.001	0.676	1.034	1772224750.892
1200	400.000	0.017	399.999	0.435	4.280	1772224751.189
1201	400.000	-0.002	400.001	0.878	1.038	1772224751.450
1202	400.000	-0.003	399.996	0.486	4.394	1772224751.678
1203	400.000	-0.015	399.999	0.146	2.613	1772224751.926
1204	400.000	0.005	399.999	0.454	0.956	1772224752.168
1205	400.000	0.006	399.997	0.593	4.357	1772224752.432
1206	400.000	-0.014	399.999	0.790	1.079	1772224752.716
1207	400.000	-0.006	399.999	0.373	4.613	1772224752.992
1208	400.000	0.014	399.999	0.388	1.487	1772224753.246
1209	400.000	0.022	399.999	0.286	0.706	1772224753.507
1210	400.000	-0.024	400.002	0.447	4.119	1772224753.744
1211	400.000	-0.016	399.999	0.873	0.997	1772224754.019
1212	400.000	0.015	399.998	0.440	4.688	1772224754.244
1213	400.000	-0.001	399.999	0.093	2.806	1772224754.495
1214	400.000	0.002	400.000	0.639	1.018	1772224754.743
1215	400.000	0.027	399.997	0.546	4.245	1772224754.968
1216	400.000	-0.003	400.001	0.729	1.005	1772224755.273
1217	400.000	-0.019	400.002	0.536	4.389	1772224755.572
1218	400.000	-0.023	400.002	0.348	1.296	1772224755.807
1219	400.000	-0.008	400.002	0.332	0.907	1772224756.047
1220	400.000	0.033	399.997	0.491	4.190	1772224756.326
1221	400.000	-0.014	400.003	0.916	0.958	1772224756.545
1222	400.000	-0.003	400.002	0.268	4.436	1772224756.821
1223	400.000	0.028	399.996	0.208	1.426	1772224757.061
1224	400.000	0.009	400.002	0.507	1.003	1772224757.337
1225	400.000	0.040	400.004	0.543	4.254	1772224757.623
1226	400.000	-0.012	399.998	0.846	1.051	1772224757.889
1227	400.000	-0.004	399.999	0.548	4.451	1772224758.117
1228	400.000	-0.002	399.999	0.316	1.469	1772224758.386
1229	400.000	0.006	400.002	0.275	0.952	1772224758.607
1230	400.000	-0.029	399.998	0.498	4.208	1772224758.902
1231	400.000	0.018	399.999	0.749	1.101	1772224759.176
1232	400.000	-0.015	400.002	0.588	4.384	1772224759.451
1233	400.000	-0.018	399.999	0.625	1.194	1772224759.700
1234	400.000	-0.004	400.003	0.089	0.383	1772224759.940
1235	400.000	-0.005	399.999	0.474	4.293	1772224760.185
1236	400.000	-0.025	399.999	0.953	1.077	1772224760.412
1237	400.000	-0.001	399.999	0.434	4.689	1772224760.688
1238	400.000	0.010	400.001	0.212	1.828	1772224760.920
1239	400.000	-0.013	400.002	0.522	1.119	1772224761.198
1240	400.000	-0.023	400.001	0.483	4.204	1772224761.476
1241	400.000	-0.005	400.004	0.807	1.131	1772224761.746
1242	400.000	-0.013	399.999	0.439	4.716	1772224761.987
1243	400.000	-0.008	399.998	0.339	1.354	1772224762.260
1244	400.000	-0.032	400.001	0.384	1.284	1772224762.497
1245	400.000	-0.007	399.998	0.500	4.146	1772224762.762
1246	400.000	0.033	400.003	0.892	0.975	1772224763.011
1247	400.000	0.006	400.000	0.283	4.780	1772224763.239
1248	400.000	0.013	400.002	0.165	2.628	1772224763.510
1249	400.000	0.025	400.000	0.397	0.925	1772224763.730
1250	400.000	-0.002	399.995	0.576	4.242	1772224763.996
1251	400.000	0.019	400.001	0.903	0.979	1772224764.255
1252	400.000	0.006	399.999	0.159	4.641	1772224764.510
1253	400.000	-0.025	400.000	0.272	3.964	1772224764.748
1254	400.000	0.041	400.004	0.851	0.969	1772224764.968
1255	400.000	0.012	400.001	0.532	4.475	1772224765.259
1256	400.000	0.047	400.003	0.619	1.159	1772224765.488
1257	400.000	0.019	399.999	0.048	1.049	1772224765.754
1258	400.000	0.017	400.000	0.521	4.106	1772224765.981
1259	400.000	0.013	400.002	0.983	0.955	1772224766.246
1260	400.000	-0.002	400.003	0.592	4.423	1772224766.526
1261	400.000	-0.013	399.999	0.701	1.051	1772224766.829
1262	400.000	0.022	399.998	0.219	4.734	1772224767.070
1263	400.000	0.015	400.000	0.195	3.780	1772224767.345
1264	400.000	0.016	400.002	0.817	1.109	1772224767.574
1265	400.000	-0.042	400.000	0.541	4.576	1772224767.850
1266	400.000	0.004	399.999	0.829	1.111	1772224768.151
1267	400.000	0.017	400.002	0.348	4.501	1772224768.403
1268	400.000	0.025	400.001	0.119	1.938	1772224768.630
1269	400.000	0.005	399.996	0.729	0.955	1772224768.895
1270	400.000	-0.006	399.998	0.544	4.263	1772224769.150
1271	400.000	-0.024	399.999	0.867	1.136	1772224769.408
1272	400.000	-0.036	400.000	0.208	4.631	1772224769.645
1273	400.000	-0.012	400.000	0.347	3.924	1772224769.873
1274	400.000	-0.032	399.998	0.839	1.016	1772224770.153
1275	400.000	-0.013	399.998	0.551	4.321	1772224770.387
1276	400.000	0.004	400.002	0.406	1.301	1772224770.645
1277	400.000	0.037	399.998	0.327	0.862	1772224770.879
1278	400.000	-0.023	400.003	0.452	4.109	1772224771.149
1279	400.000	0.020	399.996	0.936	1.046	1772224771.405
1280	400.000	0.022	399.998	0.448	4.623	1772224771.650
1281	400.000	-0.024	400.000	0.269	1.417	1772224771.906
1282	400.000	0.023	399.999	0.310	0.874	1772224772.205
1283	400.000	-0.012	400.000	0.308	3.750	1772224772.450
1284	400.000	0.010	400.004	0.898	0.982	1772224772.723
1285	400.000	0.009	400.000	0.599	4.472	1772224772.962
1286	400.000	-0.033	399.996	0.470	1.313	1772224773.225
1287	400.000	-0.010	400.001	0.279	0.754	1772224773.481
1288	400.000	0.004	399.999	0.507	3.988	1772224773.727
1289	400.000	0.004	400.004	0.882	1.068	1772224774.014
1290	400.000	0.032	399.998	0.556	4.249	1772224774.316
1291	400.000	-0.002	399.998	0.784	1.061	1772224774.547
1292	400.000	-0.018	400.000	0.065	1.279	1772224774.816
1293	400.000	-0.022	400.000	0.129	3.358	1772224775.067
1294	400.000	-0.036	400.004	0.864	1.105	1772224775.339
1295	400.000	-0.016	400.001	0.601	4.289	1772224775.620
1296	400.000	0.017	400.000	0.934	0.967	1772224775.880
1297	400.000	0.039	400.000	0.228	4.575	1772224776.110
1298	400.000	0.012	399.997	0.263	3.701	1772224776.373
1299	400.000	0.033	399.996	0.755	1.052	1772224776.633
1300	400.000	0.038	399.999	0.644	4.352	1772224776.866
1301	400.000	0.046	399.998	0.766	1.050	1772224777.128
1302	400.000	0.008	399.999	0.050	3.958	1772224777.351
1303	400.000	0.035	400.003	0.292	4.004	1772224777.640
1304	400.000	-0.004	400.005	0.779	1.065	1772224777.904
1305	400.000	-0.007	400.001	0.607	4.334	1772224778.146
1306	400.000	0.014	400.000	0.702	0.953	1772224778.392
1307	400.000	0.006	400.002	0.045	0.689	1772224778.650
1308	400.000	-0.001	400.002	0.407	3.702	1772224778.914
1309	400.000	0.034	400.000	0.768	0.986	1772224779.219
1310	400.000	-0.037	400.002	0.552	4.142	1772224779.441
1311	400.000	0.006	400.000	0.744	1.077	1772224779.706
1312	400.000	0.033	400.000	0.108	4.507	1772224779.959
1313	400.000	0.021	400.000	0.249	3.818	1772224780.212
1314	400.000	0.000	400.003	0.804	0.940	1772224780.495
1315	400.000	0.041	400.003	0.572	4.244	1772224780.759
1316	400.000	0.020	399.998	0.875	0.968	1772224781.013
1317	400.000	0.033	400.001	0.206	4.550	1772224781.284
1318	400.000	0.008	399.999	0.202	2.978	1772224781.534
1319	400.000	-0.006	400.001	0.520	1.010	1772224781.811
1320	400.000	0.025	400.001	0.594	4.257	1772224782.102
1321	400.000	-0.012	400.002	0.844	0.922	1772224782.357
1322	400.000	-0.020	399.999	0.395	4.501	1772224782.583
1323	400.000	-0.015	400.000	0.120	2.032	1772224782.857
1324	400.000	0.019	400.000	0.625	1.007	1772224783.099
1325	400.000	-0.016	400.002	0.754	4.345	1772224783.337
1326	400.000	0.029	400.000	0.884	0.952	1772224783.590
1327	400.000	0.010	400.001	0.232	4.355	1772224783.859
1328	400.000	0.041	400.002	0.182	3.222	1772224784.094
1329	400.000	-0.009	400.002	0.740	0.967	1772224784.323
1330	400.000	0.005	400.003	0.507	4.485	1772224784.602
1331	400.000	-0.004	399.999	0.600	1.092	1772224784.824
1332	400.000	0.016	400.002	0.397	1.053	1772224785.090
1333	400.000	-0.023	399.997	0.361	4.052	1772224785.349
1334	400.000	0.017	400.002	0.978	1.081	1772224785.584
1335	400.000	-0.013	400.001	0.464	4.334	1772224785.847
1336	400.000	-0.010	400.000	0.284	1.318	1772224786.084
1337	400.000	-0.002	399.999	0.311	1.120	1772224786.335
1338	400.000	0.041	400.001	0.483	4.265	1772224786.576
1339	400.000	-0.017	400.001	0.950	1.020	1772224786.849
1340	400.000	-0.046	400.001	0.333	4.494	1772224787.076
1341	400.000	0.032	400.001	0.223	2.426	1772224787.347
1342	400.000	0.019	400.002	0.499	0.889	1772224787.599
1343	400.000	0.003	399.999	0.513	4.264	1772224787.844
1344	400.000	0.001	400.001	0.820	1.092	1772224788.080
1345	400.000	-0.028	399.998	0.150	4.656	1772224788.351
1346	400.000	0.035	400.000	0.241	1.349	1772224788.678
1347	400.000	0.004	400.001	0.198	0.875	1772224788.925
1348	400.000	-0.025	399.999	0.475	4.114	1772224789.166
1349	400.000	-0.009	400.001	0.933	1.051	1772224789.441
1350	400.000	-0.011	400.002	0.512	4.409	1772224789.720
1351	400.000	0.023	399.999	0.621	1.248	1772224789.984
1352	400.000	0.001	399.999	0.061	4.104	1772224790.241
1353	400.000	0.001	399.997	0.446	4.071	1772224790.480
1354	400.000	0.035	400.002	0.887	1.162	1772224790.732
1355	400.000	0.013	399.998	0.478	4.566	1772224790.970
1356	400.000	0.019	400.000	0.272	1.019	1772224791.225
1357	400.000	0.010	400.000	0.358	1.049	1772224791.467
1358	400.000	0.001	400.002	0.465	4.030	1772224791.759
1359	400.000	-0.027	400.003	1.021	1.109	1772224791.995
1360	400.000	0.033	400.002	0.456	4.545	1772224792.277
1361	400.000	0.033	400.000	0.610	1.269	1772224792.575
1362	400.000	-0.043	400.001	0.082	4.031	1772224792.828
1363	400.000	0.018	400.001	0.156	3.746	1772224793.116
1364	400.000	-0.016	400.003	0.744	1.109	1772224793.360
1365	400.000	-0.006	400.002	0.536	4.244	1772224793.600
1366	400.000	0.007	400.001	0.886	1.206	1772224793.879
1367	400.000	-0.017	399.998	0.198	4.368	1772224794.109
1368	400.000	0.025	400.000	0.267	3.647	1772224794.358
1369	400.000	0.026	399.999	0.678	0.976	1772224794.636
1370	400.000	0.021	400.001	0.565	4.334	1772224794.886
1371	400.000	-0.028	399.997	0.785	1.050	1772224795.123
1372	400.000	-0.013	400.000	0.062	6.236	1772224795.384
1373	400.000	-0.010	400.000	0.334	4.131	1772224795.636
1374	400.000	0.008	400.003	0.890	1.101	1772224795.861
1375	400.000	-0.021	400.000	0.483	4.315	1772224796.128
1376	400.000	0.001	400.001	0.555	1.211	1772224796.389
1377	400.000	0.020	400.001	0.165	1.170	1772224796.625
1378	400.000	-0.011	400.003	0.327	4.137	1772224796.887
1379	400.000	0.005	400.000	1.025	1.056	1772224797.131
1380	400.000	-0.033	400.000	0.574	4.455	1772224797.389
1381	400.000	-0.028	399.999	0.546	1.257	1772224797.685
1382	400.000	0.068	399.998	0.121	0.301	1772224797.943
1383	400.000	-0.018	400.002	0.362	3.974	1772224798.197
1384	400.000	-0.056	399.998	0.890	1.027	1772224798.450
1385	400.000	-0.030	400.002	0.552	4.611	1772224798.690
1386	400.000	0.028	400.003	0.585	1.471	1772224798.959
1387	400.000	0.021	400.001	0.075	6.101	1772224799.223
1388	400.000	0.011	399.999	0.226	3.365	1772224799.509
1389	400.000	-0.016	400.002	0.614	0.969	1772224799.794
1390	400.000	0.001	400.000	0.446	4.003	1772224800.062
1391	400.000	-0.021	400.002	0.992	1.020	1772224800.340
1392	400.000	0.025	400.001	0.428	4.611	1772224800.563
1393	400.000	0.024	399.999	0.160	2.226	1772224800.827
1394	400.000	-0.015	400.001	0.460	1.193	1772224801.086
1395	400.000	0.018	399.997	0.549	4.237	1772224801.326
1396	400.000	0.015	399.999	0.898	1.092	1772224801.605
1397	400.000	-0.011	399.998	0.236	4.332	1772224801.846
1398	400.000	-0.016	400.000	0.164	2.884	1772224802.106
1399	400.000	-0.011	400.000	0.419	1.142	1772224802.406
1400	400.000	-0.003	400.000	0.386	4.050	1772224802.653
1401	400.000	-0.023	400.001	0.918	1.039	1772224802.920
1402	400.000	0.019	400.001	0.539	4.541	1772224803.144
1403	400.000	0.027	400.001	0.168	1.806	1772224803.422
1404	400.000	0.026	400.000	0.477	1.216	1772224803.663
1405	400.000	-0.053	400.000	0.481	4.268	1772224803.886
1406	400.000	0.016	399.998	0.996	0.976	1772224804.158
1407	400.000	0.027	399.999	0.374	4.321	1772224804.414
1408	400.000	0.021	399.998	0.275	1.962	1772224804.674
1409	400.000	0.034	400.001	0.788	1.067	1772224804.905
1410	400.000	-0.030	399.999	0.539	4.352	1772224805.132
1411	400.000	0.019	399.997	0.681	1.160	1772224805.416
1412	400.000	0.029	400.001	0.110	1.752	1772224805.651
1413	400.000	-0.012	400.000	0.213	3.765	1772224805.912
1414	400.000	0.017	400.000	0.837	1.086	1772224806.147
1415	400.000	0.007	400.002	0.486	4.565	1772224806.416
1416	400.000	-0.031	400.001	0.698	1.078	1772224806.665
1417	400.000	-0.007	399.996	0.274	1.123	1772224806.898
1418	400.000	-0.006	399.999	0.426	4.101	1772224807.149
1419	400.000	-0.002	400.000	0.848	1.019	1772224807.392
1420	400.000	-0.026	399.998	0.455	4.524	1772224807.672
1421	400.000	-0.021	400.000	0.332	1.492	1772224807.902
1422	400.000	0.017	399.997	0.520	1.206	1772224808.166
1423	400.000	0.011	399.998	0.535	4.384	1772224808.414
1424	400.000	-0.037	400.000	0.878	1.052	1772224808.680
1425	400.000	-0.016	400.002	0.347	4.405	1772224808.966
1426	400.000	0.022	399.995	0.243	1.119	1772224809.229
1427	400.000	0.015	400.000	0.557	1.158	1772224809.454
1428	400.000	0.006	400.000	0.458	4.370	1772224809.711
1429	400.000	0.005	400.001	0.881	1.178	1772224809.988
1430	400.000	0.008	399.999	0.317	4.467	1772224810.300
1431	400.000	0.015	400.003	0.574	1.368	1772224810.533
1432	400.000	-0.013	400.001	0.358	1.140	1772224810.784
1433	400.000	-0.022	400.000	0.580	4.333	1772224811.026
1434	400.000	-0.019	400.002	0.880	1.054	1772224811.291
1435	400.000	-0.007	400.002	0.262	4.557	1772224811.551
1436	400.000	-0.005	399.996	0.253	1.945	1772224811.776
1437	400.000	-0.014	399.999	0.588	1.167	1772224812.049
1438	400.000	0.007	399.999	0.489	4.214	1772224812.351
1439	400.000	-0.014	400.002	0.917	1.181	1772224812.614
1440	400.000	-0.011	399.999	0.529	4.431	1772224812.914
1441	400.000	0.045	399.999	0.761	1.166	1772224813.145
1442	400.000	0.004	400.004	0.147	1.320	1772224813.410
1443	400.000	0.009	400.000	0.373	4.086	1772224813.645
1444	400.000	0.007	400.001	0.760	1.130	1772224813.909
1445	400.000	0.047	400.001	0.512	4.238	1772224814.183
1446	400.000	0.008	400.000	0.400	1.093	1772224814.438
1447	400.000	0.014	399.997	0.010	4.352	1772224814.690
1448	400.000	-0.006	400.002	0.333	4.018	1772224814.923
1449	400.000	-0.033	400.001	0.878	1.068	1772224815.173
1450	400.000	-0.000	400.000	0.376	4.547	1772224815.408
1451	400.000	0.043	400.001	0.162	1.489	1772224815.679
1452	400.000	0.019	399.998	0.516	1.332	1772224815.935
1453	400.000	0.026	399.998	0.511	4.309	1772224816.178
1454	400.000	0.015	399.997	0.873	1.115	1772224816.427
1455	400.000	0.012	400.000	0.123	4.511	1772224816.645
1456	400.000	-0.009	399.998	0.163	3.250	1772224816.913
1457	400.000	-0.030	400.002	0.758	1.134	1772224817.166
1458	400.000	-0.003	399.995	0.505	4.581	1772224817.423
1459	400.000	-0.033	399.999	0.584	1.196	1772224817.675
1460	400.000	0.017	399.999	0.151	1.191	1772224817.922
1461	400.000	0.018	400.002	0.291	3.867	1772224818.170
1462	400.000	-0.021	400.003	0.961	1.097	1772224818.407
1463	400.000	0.009	399.999	0.387	4.490	1772224818.656
1464	400.000	0.022	399.999	0.184	1.444	1772224818.915
1465	400.000	-0.012	399.998	0.461	1.370	1772224819.189
1466	400.000	-0.003	400.000	0.407	4.092	1772224819.421
1467	400.000	0.041	400.003	0.873	1.063	1772224819.679
1468	400.000	0.053	399.998	0.348	4.292	1772224819.929
1469	400.000	0.005	400.002	0.111	1.746	1772224820.149
1470	400.000	-0.040	400.002	0.690	1.235	1772224820.427
1471	400.000	0.011	400.002	0.575	4.325	1772224820.661
1472	400.000	0.023	399.993	0.801	1.090	1772224820.935
1473	400.000	0.009	400.000	0.258	4.363	1772224821.231
1474	400.000	0.007	400.003	0.290	1.296	1772224821.473
1475	400.000	0.021	399.999	0.620	1.239	1772224821.727
1476	400.000	0.012	400.000	0.483	4.322	1772224821.982
1477	400.000	-0.009	400.001	0.917	1.076	1772224822.220
1478	400.000	-0.034	399.999	0.320	4.658	1772224822.513
1479	400.000	0.000	399.996	0.425	1.237	1772224822.797
1480	400.000	0.036	400.001	0.227	1.063	1772224823.055
1481	400.000	-0.009	399.999	0.382	4.062	1772224823.306
1482	400.000	-0.001	400.000	0.837	1.120	1772224823.544
1483	400.000	0.008	400.002	0.232	4.218	1772224823.775
1484	400.000	-0.013	399.998	0.240	1.337	1772224824.052
1485	400.000	-0.014	400.002	0.440	1.292	1772224824.310
1486	400.000	-0.012	399.998	0.457	4.338	1772224824.555
1487	400.000	-0.017	400.002	0.949	1.171	1772224824.810
1488	400.000	0.029	400.000	0.296	4.656	1772224825.051
1489	400.000	0.022	400.001	0.188	2.150	1772224825.306
1490	400.000	0.007	400.000	0.673	1.207	1772224825.537
1491	400.000	0.019	400.000	0.593	4.345	1772224825.792
1492	400.000	-0.020	400.002	0.846	1.144	1772224826.044
1493	400.000	0.016	400.002	0.037	1.827	1772224826.308
1494	400.000	-0.009	399.999	0.208	3.382	1772224826.567
1495	400.000	-0.030	400.001	0.653	1.316	1772224826.873
1496	400.000	-0.030	400.000	0.478	4.182	1772224827.099
1497	400.000	0.026	400.001	0.874	1.105	1772224827.357
1498	400.000	-0.036	399.998	0.151	4.263	1772224827.606
1499	400.000	0.002	399.999	0.266	3.228	1772224827.859
1500	400.000	0.002	400.002	0.665	1.158	1772224828.107
1501	400.000	-0.013	399.999	0.488	4.229	1772224828.361
1502	400.000	-0.003	400.002	0.800	1.164	1772224828.613
1503	400.000	-0.002	399.998	0.165	1.040	1772224828.833
1504	400.000	-0.037	399.998	0.389	3.989	1772224829.098
1505	400.000	0.026	400.000	0.802	1.144	1772224829.359
1506	400.000	-0.002	399.997	0.497	4.433	1772224829.622
1507	400.000	0.011	400.002	0.530	1.235	1772224829.872
1508	400.000	-0.004	399.999	0.231	1.338	1772224830.108
1509	400.000	0.004	400.000	0.333	3.984	1772224830.357
1510	400.000	0.014	400.001	0.867	1.077	1772224830.598
1511	400.000	0.006	399.997	0.360	4.412	1772224830.867
1512	400.000	-0.005	400.001	0.432	1.386	1772224831.095
1513	400.000	-0.019	400.000	0.386	1.179	1772224831.374
1514	400.000	0.033	399.998	0.435	4.045	1772224831.604
1515	400.000	-0.009	400.001	0.873	1.097	1772224831.871
1516	400.000	0.014	400.001	0.143	4.564	1772224832.108
1517	400.000	-0.014	400.001	0.153	3.408	1772224832.338
1518	400.000	-0.022	399.998	0.782	1.179	1772224832.589
1519	400.000	-0.054	400.001	0.565	4.325	1772224832.841
1520	400.000	0.008	400.001	0.762	1.128	1772224833.124
1521	400.000	0.017	400.000	0.261	4.435	1772224833.420
1522	400.000	0.002	400.001	0.299	1.498	1772224833.662
1523	400.000	0.025	399.998	0.489	1.208	1772224833.903
1524	400.000	0.027	399.999	0.461	4.003	1772224834.176
1525	400.000	-0.031	400.001	0.852	1.047	1772224834.437
1526	400.000	-0.016	400.000	0.402	4.398	1772224834.715
1527	400.000	0.008	399.999	0.393	1.388	1772224835.017
1528	400.000	0.007	400.001	0.102	0.808	1772224835.261
1529	400.000	-0.033	400.000	0.342	3.868	1772224835.478
1530	400.000	-0.026	400.001	0.816	1.072	1772224835.766
1531	400.000	-0.039	400.003	0.454	4.363	1772224835.997
1532	400.000	0.008	400.000	0.302	1.512	1772224836.258
1533	400.000	0.001	399.999	0.250	1.484	1772224836.508
1534	400.000	-0.032	400.002	0.408	3.958	1772224836.741
1535	400.000	-0.016	400.001	0.864	1.186	1772224837.001
1536	400.000	-0.013	400.002	0.247	4.431	1772224837.269
1537	400.000	-0.030	399.997	0.360	1.691	1772224837.504
1538	400.000	-0.011	400.000	0.377	1.063	1772224837.724
1539	400.000	0.018	399.997	0.471	4.185	1772224838.013
1540	400.000	-0.025	400.000	1.015	1.030	1772224838.269
1541	400.000	0.009	400.002	0.281	4.846	1772224838.553
1542	400.000	0.020	400.000	0.513	1.246	1772224838.783
1543	400.000	-0.010	400.001	0.346	1.246	1772224839.053
1544	400.000	-0.008	399.998	0.368	4.072	1772224839.312
1545	400.000	-0.018	400.002	0.908	1.067	1772224839.584
1546	400.000	-0.006	400.000	0.380	4.469	1772224839.799
1547	400.000	0.008	399.997	0.207	1.521	1772224840.056
1548	400.000	0.045	400.000	0.582	1.234	1772224840.329
1549	400.000	0.023	400.000	0.374	4.021	1772224840.654
1550	400.000	0.002	400.002	0.736	1.135	1772224840.952
1551	400.000	-0.018	399.997	0.535	4.205	1772224841.178
1552	400.000	0.004	400.002	0.781	1.074	1772224841.447
1553	400.000	-0.017	399.999	0.147	0.600	1772224841.695
1554	400.000	-0.016	400.000	0.084	2.576	1772224841.952
1555	400.000	0.001	399.998	0.570	1.048	1772224842.238
1556	400.000	-0.045	399.998	0.435	4.184	1772224842.503
1557	400.000	0.006	400.000	0.866	1.063	1772224842.741
1558	400.000	0.019	399.998	0.177	4.714	1772224842.994
1559	400.000	-0.005	400.001	0.207	1.796	1772224843.263
1560	400.000	-0.017	400.001	0.516	1.196	1772224843.504
1561	400.000	0.017	400.001	0.531	4.245	1772224843.745
1562	400.000	-0.021	400.001	0.801	1.125	1772224844.019
1563	400.000	-0.010	400.004	0.088	0.060	1772224844.264
1564	400.000	0.042	400.000	0.215	3.503	1772224844.523
1565	400.000	-0.020	400.001	0.682	1.289	1772224844.816
1566	400.000	0.006	399.998	0.475	4.541	1772224845.054
1567	400.000	0.012	400.000	0.778	1.170	1772224845.326
1568	400.000	-0.008	400.000	0.765	1.041	1772224845.572
1569	400.000	0.009	399.998	0.697	1.526	1772224845.825
1570	400.000	-0.007	400.001	0.138	4.187	1772224846.059
1571	400.000	0.006	399.998	0.358	4.597	1772224846.328
1572	400.000	0.003	399.998	0.450	4.571	1772224846.612
1573	400.000	0.012	400.002	0.435	4.444	1772224846.894
1574	400.000	0.001	399.999	0.418	4.537	1772224847.172
1575	400.000	0.016	399.999	0.396	4.323	1772224847.436
1576	400.000	-0.033	400.001	0.500	4.461	1772224847.666
1577	400.000	-0.020	399.997	0.374	4.625	1772224847.946
1578	400.000	-0.006	400.000	0.526	4.566	1772224848.187
1579	400.000	-0.002	400.003	0.436	4.390	1772224848.445
1580	400.000	0.030	399.998	0.438	4.385	1772224848.707
1581	400.000	-0.016	400.003	0.423	4.523	1772224849.001
1582	400.000	0.012	400.000	0.527	4.331	1772224849.234
1583	400.000	0.009	399.998	0.349	4.523	1772224849.500
1584	400.000	-0.017	400.002	0.416	4.497	1772224849.758
1585	400.000	0.042	400.001	0.556	4.371	1772224850.003
1586	400.000	-0.024	399.999	0.428	4.282	1772224850.254
1587	400.000	-0.004	400.001	0.489	4.500	1772224850.479
1588	400.000	-0.024	400.001	0.365	4.474	1772224850.745
1589	400.000	-0.006	399.995	0.380	4.562	1772224851.006
1590	400.000	-0.050	400.000	0.426	4.531	1772224851.323
1591	400.000	-0.022	400.004	0.396	4.515	1772224851.567
1592	400.000	0.009	400.000	0.499	4.415	1772224851.824
1593	400.000	0.018	400.003	0.393	4.576	1772224852.108
1594	400.000	0.056	400.002	0.470	4.530	1772224852.387
1595	400.000	0.006	399.999	0.424	4.526	1772224852.678
1596	400.000	0.020	399.998	0.405	4.557	1772224852.921
1597	400.000	-0.011	400.000	0.464	4.708	1772224853.184
1598	400.000	0.001	400.003	0.486	4.550	1772224853.438
1599	400.000	0.038	400.003	0.509	4.526	1772224853.710
1600	400.000	0.021	400.003	0.447	4.741	1772224853.970
1601	400.000	0.016	400.001	0.429	4.500	1772224854.261
1602	400.000	-0.004	400.001	0.437	4.669	1772224854.476
1603	400.000	0.006	399.999	0.466	4.523	1772224854.744
1604	400.000	-0.010	399.998	0.419	4.704	1772224855.000
1605	400.000	0.047	399.998	0.508	4.497	1772224855.272
1606	400.000	0.013	399.994	0.427	4.359	1772224855.553
1607	400.000	-0.031	400.002	0.540	4.356	1772224855.828
1608	400.000	0.005	400.000	0.440	4.447	1772224856.070
1609	400.000	0.023	400.002	0.538	4.420	1772224856.342
1610	400.000	0.013	400.005	0.462	4.392	1772224856.637
1611	400.000	0.024	400.000	0.475	4.384	1772224856.929
1612	400.000	-0.017	400.001	0.374	4.689	1772224857.202
1613	400.000	-0.002	399.998	0.437	4.580	1772224857.435
1614	400.000	0.022	400.006	0.443	4.675	1772224857.701
1615	400.000	-0.000	399.999	0.424	4.609	1772224857.978
1616	400.000	0.012	399.999	0.487	4.444	1772224858.254
1617	400.000	0.028	399.998	0.563	4.565	1772224858.507
1618	400.000	-0.010	400.000	0.455	4.505	1772224858.766
1619	400.000	-0.027	400.000	0.416	4.595	1772224859.010
1620	400.000	0.009	399.997	0.462	4.418	1772224859.284
1621	400.000	0.015	399.999	0.467	4.470	1772224859.542
1622	400.000	0.019	400.000	0.429	4.382	1772224859.847
1623	400.000	-0.028	400.001	0.463	4.522	1772224860.133
1624	400.000	0.021	400.001	0.360	4.564	1772224860.389
1625	400.000	0.018	399.999	0.374	4.402	1772224860.620
1626	400.000	0.022	400.002	0.415	4.514	1772224860.914
1627	400.000	-0.019	399.998	0.432	4.533	1772224861.207
1628	400.000	0.004	400.000	0.460	4.492	1772224861.469
1629	400.000	0.015	400.002	0.421	4.613	1772224861.764
1630	400.000	-0.012	399.997	0.396	4.284	1772224861.997
1631	400.000	-0.058	399.999	0.397	4.240	1772224862.259
1632	400.000	-0.042	399.998	0.527	4.373	1772224862.521
1633	400.000	-0.008	400.001	0.376	4.522	1772224862.812
1634	400.000	0.026	399.998	0.412	4.385	1772224863.030
1635	400.000	0.017	399.998	0.438	4.455	1772224863.292
1636	400.000	-0.001	399.996	0.361	4.762	1772224863.541
1637	400.000	0.010	399.997	0.454	4.420	1772224863.797
1638	400.000	-0.029	399.997	0.460	4.423	1772224864.042
1639	400.000	-0.002	399.999	0.477	4.502	1772224864.298
1640	400.000	0.003	399.996	0.478	4.322	1772224864.543
1641	400.000	-0.028	400.000	0.451	4.555	1772224864.796
1642	400.000	-0.023	400.003	0.485	4.525	1772224865.041
1643	400.000	-0.016	400.001	0.484	4.558	1772224865.295
1644	400.000	-0.003	400.003	0.401	4.387	1772224865.560
1645	400.000	-0.007	400.001	0.352	4.377	1772224865.804
1646	400.000	0.027	400.001	0.414	4.455	1772224866.039
1647	400.000	0.007	400.002	0.401	4.499	1772224866.363
1648	400.000	0.025	399.999	0.415	4.273	1772224866.610
1649	400.000	-0.041	399.997	0.489	4.425	1772224866.868
1650	400.000	-0.011	399.998	0.408	4.481	1772224867.126
1651	400.000	0.018	400.002	0.410	4.435	1772224867.371
1652	400.000	0.028	400.001	0.376	4.457	1772224867.636
1653	400.000	-0.048	399.998	0.510	4.530	1772224867.896
1654	400.000	-0.020	400.000	0.425	4.352	1772224868.187
1655	400.000	0.013	400.001	0.415	4.292	1772224868.448
1656	400.000	-0.034	399.999	0.408	4.657	1772224868.703
1657	400.000	0.028	400.000	0.480	4.694	1772224868.951
1658	400.000	-0.011	400.000	0.453	4.498	1772224869.187
1659	400.000	0.039	399.999	0.408	4.620	1772224869.422
1660	400.000	-0.003	399.999	0.507	4.427	1772224869.675
1661	400.000	0.015	400.002	0.516	4.450	1772224869.944
1662	400.000	0.015	399.998	0.418	4.540	1772224870.181
1663	400.000	0.021	400.004	0.392	4.542	1772224870.434
1664	400.000	-0.007	400.000	0.474	4.548	1772224870.681
1665	400.000	0.014	400.000	0.410	4.473	1772224870.917
1666	400.000	-0.032	400.003	0.453	4.431	1772224871.186
1667	400.000	-0.009	400.000	0.523	4.599	1772224871.420
1668	400.000	0.026	399.999	0.437	4.668	1772224871.685
1669	400.000	0.004	399.999	0.374	4.403	1772224871.937
1670	400.000	0.023	400.001	0.498	4.560	1772224872.185
1671	400.000	-0.027	400.000	0.387	4.594	1772224872.440
1672	400.000	0.028	400.003	0.434	4.294	1772224872.685
1673	400.000	0.033	400.000	0.476	4.557	1772224872.944
1674	400.000	0.024	400.000	0.384	4.663	1772224873.205
1675	400.000	0.021	399.998	0.441	4.513	1772224873.453
1676	400.000	0.010	399.999	0.359	4.449	1772224873.685
1677	400.000	-0.015	400.001	0.452	4.466	1772224873.977
1678	400.000	0.014	399.998	0.384	4.614	1772224874.228
1679	400.000	-0.030	400.001	0.462	4.589	1772224874.480
1680	400.000	-0.006	400.002	0.454	4.475	1772224874.706
1681	400.000	-0.008	400.000	0.430	4.547	1772224874.983
1682	400.000	0.038	399.998	0.510	4.569	1772224875.239
1683	400.000	0.012	400.000	0.456	4.512	1772224875.485
1684	400.000	0.038	400.002	0.417	4.343	1772224875.741
1685	400.000	0.001	400.000	0.342	4.703	1772224876.005
1686	400.000	0.029	399.998	0.436	4.578	1772224876.251
1687	400.000	0.005	399.997	0.436	4.535	1772224876.499
1688	400.000	0.001	400.000	0.401	4.547	1772224876.756
1689	400.000	0.002	399.998	0.396	4.447	1772224876.988
1690	400.000	-0.001	400.000	0.412	4.393	1772224877.256
1691	400.000	0.027	400.000	0.411	4.588	1772224877.499
1692	400.000	-0.010	400.000	0.475	4.471	1772224877.769
1693	400.000	-0.006	400.003	0.421	4.512	1772224878.067
1694	400.000	0.023	400.001	0.446	4.464	1772224878.318
1695	400.000	0.020	400.002	0.397	4.518	1772224878.542
1696	400.000	0.015	400.004	0.454	4.597	1772224878.820
1697	400.000	-0.008	400.000	0.367	4.620	1772224879.050
1698	400.000	-0.037	399.998	0.428	4.565	1772224879.324
1699	400.000	0.014	399.999	0.495	4.469	1772224879.573
1700	400.000	-0.036	400.001	0.370	4.500	1772224879.813
1701	400.000	0.010	400.000	0.503	4.536	1772224880.088
1702	400.000	-0.000	399.999	0.510	4.471	1772224880.383
1703	400.000	-0.021	400.000	0.446	4.589	1772224880.613
1704	400.000	-0.021	400.001	0.367	4.513	1772224880.883
1705	400.000	-0.003	399.999	0.481	4.562	1772224881.136
1706	400.000	-0.002	400.002	0.433	4.595	1772224881.368
1707	400.000	-0.024	400.000	0.400	4.771	1772224881.642
1708	400.000	0.005	400.000	0.375	4.556	1772224881.882
1709	400.000	0.019	399.999	0.400	4.365	1772224882.147
1710	400.000	0.009	399.999	0.456	4.529	1772224882.378
1711	400.000	0.005	399.997	0.481	4.640	1772224882.660
1712	400.000	0.023	400.001	0.444	4.484	1772224882.873
1713	400.000	-0.006	400.000	0.412	4.536	1772224883.133
1714	400.000	0.022	399.998	0.392	4.429	1772224883.374
1715	400.000	-0.024	399.996	0.447	4.315	1772224883.632
1716	400.000	-0.009	400.001	0.461	4.496	1772224883.897
1717	400.000	0.011	400.000	0.392	4.319	1772224884.124
1718	400.000	-0.027	399.998	0.480	4.473	1772224884.408
1719	400.000	-0.015	399.997	0.385	4.555	1772224884.633
1720	400.000	0.013	400.001	0.507	4.595	1772224884.880
1721	400.000	0.025	400.003	0.423	4.597	1772224885.120
1722	400.000	-0.027	399.999	0.461	4.477	1772224885.672
1723	400.000	-0.030	399.998	0.400	4.625	1772224885.969
1724	400.000	-0.009	399.998	0.497	4.409	1772224886.261
1725	400.000	-0.012	399.998	0.488	4.505	1772224886.513
1726	400.000	0.012	400.001	0.378	4.588	1772224886.782
1727	400.000	-0.014	400.000	0.426	4.609	1772224887.029
1728	400.000	0.015	400.001	0.467	4.424	1772224887.267
1729	400.000	0.004	399.997	0.434	4.482	1772224887.518
1730	400.000	0.002	400.000	0.504	4.515	1772224887.760
1731	400.000	-0.007	400.002	0.450	4.580	1772224888.019
1732	400.000	-0.018	400.001	0.475	4.500	1772224888.286
1733	400.000	-0.034	400.000	0.532	4.449	1772224888.590
1734	400.000	-0.017	399.999	0.515	4.314	1772224888.815
1735	400.000	0.014	399.998	0.506	4.361	1772224889.082
1736	400.000	0.011	399.998	0.510	4.407	1772224889.335
