Point No.	Frequency Set (GHz)	THz Photocurrent (nA)	Frequency Act (GHz)	Amplitude (via StrMod)	Phase (via StrMod)	Timestamp (s)
1	600.000	-0.023	599.999	0.161	0.305	1772052405.806
2	600.000	0.015	600.000	0.114	6.040	1772052406.101
3	600.000	0.044	600.002	0.225	0.034	1772052406.363
4	600.000	0.023	600.002	0.171	6.163	1772052406.623
5	600.000	0.016	600.002	0.221	6.060	1772052406.883
6	600.000	-0.011	600.001	0.131	5.865	1772052407.116
7	600.000	-0.014	600.002	0.107	0.152	1772052407.381
8	600.000	-0.005	600.000	0.201	6.081	1772052407.618
9	600.000	-0.005	599.999	0.188	0.492	1772052407.855
10	600.000	0.020	600.000	0.251	0.049	1772052408.124
11	600.000	-0.017	600.003	0.189	6.137	1772052408.361
12	600.000	0.017	599.999	0.172	0.284	1772052408.616
13	600.000	0.010	599.999	0.180	0.154	1772052408.865
14	600.000	-0.004	600.000	0.174	0.084	1772052409.142
15	600.000	-0.015	599.998	0.157	6.250	1772052409.431
16	600.000	-0.061	599.998	0.187	5.601	1772052409.718
17	600.000	0.023	599.999	0.162	5.604	1772052410.015
18	600.000	-0.037	599.998	0.147	6.200	1772052410.285
19	600.000	-0.023	599.999	0.160	6.226	1772052410.578
20	600.000	-0.023	600.000	0.185	5.997	1772052410.884
21	600.000	0.042	599.997	0.135	6.118	1772052411.173
22	600.000	0.007	599.999	0.198	0.064	1772052411.428
23	600.000	0.000	600.002	0.153	0.139	1772052411.660
24	600.000	-0.001	600.000	0.101	6.260	1772052411.929
25	600.000	-0.043	599.999	0.119	0.191	1772052412.185
26	600.000	0.013	600.002	0.120	0.177	1772052412.432
27	600.000	0.029	599.999	0.228	0.226	1772052412.697
28	600.000	0.014	599.997	0.207	6.280	1772052412.933
29	600.000	0.001	600.004	0.127	0.237	1772052413.173
30	600.000	0.010	600.002	0.078	5.358	1772052413.417
31	600.000	0.001	600.002	0.238	0.129	1772052413.676
32	600.000	-0.002	600.000	0.253	6.268	1772052413.920
33	600.000	-0.001	600.002	0.195	0.085	1772052414.197
34	600.000	-0.015	600.000	0.202	0.075	1772052414.442
35	600.000	0.011	599.998	0.229	0.096	1772052414.659
36	600.000	0.019	600.000	0.095	5.691	1772052414.932
37	600.000	-0.002	599.998	0.186	0.021	1772052415.171
38	600.000	0.008	600.002	0.122	6.018	1772052415.447
39	600.000	-0.026	599.999	0.168	6.037	1772052415.676
40	600.000	-0.001	599.996	0.128	0.307	1772052415.920
41	600.000	-0.010	599.997	0.148	6.211	1772052416.191
42	600.000	0.001	600.001	0.189	6.161	1772052416.448
43	600.000	-0.053	600.003	0.217	0.071	1772052416.688
44	600.000	0.037	599.999	0.167	6.261	1772052416.912
45	600.000	-0.035	599.999	0.141	6.227	1772052417.184
46	600.000	0.027	600.002	0.134	6.131	1772052417.430
47	600.000	0.033	599.998	0.193	6.140	1772052417.682
48	600.000	0.013	600.001	0.253	0.290	1772052417.941
49	600.000	0.040	599.999	0.156	6.099	1772052418.189
50	600.000	-0.000	600.000	0.209	0.225	1772052418.420
51	600.000	-0.020	599.999	0.157	6.182	1772052418.683
52	600.000	-0.018	599.999	0.132	0.310	1772052418.934
53	600.000	0.038	599.996	0.195	6.178	1772052419.151
54	600.000	-0.026	599.997	0.144	6.033	1772052419.425
55	600.000	0.015	600.001	0.151	0.103	1772052419.690
56	600.000	-0.024	600.005	0.138	6.054	1772052419.928
57	600.000	-0.006	600.000	0.145	6.147	1772052420.170
58	600.000	-0.010	600.002	0.118	6.264	1772052420.420
59	600.000	0.001	600.003	0.198	0.001	1772052420.693
60	600.000	-0.019	599.996	0.149	0.013	1772052420.920
61	600.000	0.044	600.002	0.162	0.452	1772052421.197
62	600.000	0.015	600.001	0.228	0.077	1772052421.433
63	600.000	-0.022	600.001	0.145	0.124	1772052421.703
64	600.000	0.033	600.000	0.147	6.202	1772052421.952
65	600.000	0.008	600.002	0.207	6.176	1772052422.199
66	600.000	-0.020	600.001	0.152	0.270	1772052422.440
67	600.000	-0.040	599.999	0.213	0.094	1772052422.681
68	600.000	-0.000	600.000	0.135	6.170	1772052422.919
69	600.000	-0.037	599.999	0.195	5.983	1772052423.212
70	600.000	0.006	599.998	0.153	0.124	1772052423.504
71	600.000	-0.018	600.000	0.184	6.188	1772052423.773
72	600.000	0.007	600.001	0.189	6.160	1772052424.013
73	600.000	-0.010	599.999	0.153	5.877	1772052424.278
74	600.000	0.026	599.999	0.198	0.067	1772052424.586
75	600.000	-0.049	599.999	0.143	0.298	1772052424.840
76	600.000	-0.024	600.002	0.208	6.270	1772052425.127
77	600.000	0.012	600.001	0.213	6.216	1772052425.378
78	600.000	0.001	600.000	0.108	0.054	1772052425.630
79	600.000	-0.026	600.003	0.194	0.312	1772052425.898
80	600.000	0.031	600.000	0.139	6.197	1772052426.155
81	600.000	-0.024	600.001	0.158	5.953	1772052426.456
82	600.000	-0.007	600.000	0.135	6.074	1772052426.678
83	600.000	-0.011	600.001	0.104	5.836	1772052426.946
84	600.000	-0.029	600.000	0.098	6.076	1772052427.195
85	600.000	-0.008	600.000	0.186	6.100	1772052427.473
86	600.000	-0.028	600.001	0.201	5.958	1772052427.781
87	600.000	0.003	599.998	0.243	0.071	1772052428.037
88	600.000	0.027	600.001	0.180	5.938	1772052428.333
89	600.000	0.003	600.002	0.193	5.950	1772052428.573
90	600.000	-0.019	599.997	0.203	0.157	1772052428.816
91	600.000	-0.024	599.995	0.189	6.273	1772052429.085
92	600.000	0.022	599.998	0.177	6.124	1772052429.304
93	600.000	-0.014	599.999	0.216	0.053	1772052429.574
94	600.000	-0.019	600.002	0.104	5.791	1772052429.832
95	600.000	-0.002	599.999	0.189	6.042	1772052430.072
96	600.000	-0.034	600.004	0.133	6.280	1772052430.314
97	600.000	0.042	599.999	0.163	5.764	1772052430.581
98	600.000	0.000	600.000	0.172	6.215	1772052430.807
99	600.000	0.013	600.003	0.176	6.102	1772052431.065
100	600.000	-0.020	600.000	0.155	5.891	1772052431.357
101	600.000	0.008	599.997	0.186	6.251	1772052431.614
102	600.000	-0.025	599.999	0.101	6.003	1772052431.892
103	600.000	-0.005	600.002	0.246	0.125	1772052432.131
104	600.000	-0.022	599.999	0.160	6.027	1772052432.401
105	600.000	-0.013	599.999	0.275	0.251	1772052432.644
106	600.000	-0.008	599.999	0.182	6.257	1772052432.893
107	600.000	0.017	600.002	0.179	5.838	1772052433.147
108	600.000	0.004	600.000	0.153	5.917	1772052433.399
109	600.000	-0.033	599.997	0.174	5.910	1772052433.643
110	600.000	-0.030	600.001	0.246	6.187	1772052433.864
111	600.000	-0.034	600.000	0.148	6.280	1772052434.136
112	600.000	-0.009	599.999	0.247	6.120	1772052434.365
113	600.000	-0.010	600.002	0.152	6.016	1772052434.646
114	600.000	-0.026	600.000	0.241	0.268	1772052434.915
115	600.000	0.020	599.999	0.160	0.252	1772052435.201
116	600.000	-0.023	600.000	0.273	0.379	1772052435.447
117	600.000	-0.037	600.001	0.212	0.225	1772052435.714
118	600.000	0.013	600.000	0.220	6.252	1772052435.976
119	600.000	-0.029	600.004	0.219	0.081	1772052436.245
120	600.000	-0.016	600.002	0.166	6.147	1772052436.543
121	600.000	0.006	600.001	0.170	0.134	1772052436.790
122	600.000	-0.007	599.999	0.175	0.094	1772052437.018
123	600.000	0.021	600.000	0.150	0.071	1772052437.284
124	600.000	0.015	600.000	0.153	6.086	1772052437.527
125	600.000	0.004	599.999	0.251	6.119	1772052437.772
126	600.000	0.015	600.000	0.116	0.304	1772052438.026
127	600.000	-0.003	599.995	0.266	6.147	1772052438.294
128	600.000	0.033	599.999	0.166	6.197	1772052438.601
129	600.000	-0.005	599.999	0.244	0.150	1772052438.852
130	600.000	0.051	600.002	0.128	5.999	1772052439.083
131	600.000	-0.026	600.000	0.127	0.548	1772052439.342
132	600.000	-0.039	600.001	0.175	0.083	1772052439.587
133	600.000	-0.069	600.000	0.204	0.270	1772052439.843
134	600.000	-0.003	600.003	0.191	0.138	1772052440.079
135	600.000	-0.040	600.000	0.220	0.202	1772052440.310
136	600.000	-0.018	600.000	0.175	6.003	1772052440.574
137	600.000	0.014	600.001	0.161	6.101	1772052440.839
138	600.000	-0.012	600.001	0.148	6.165	1772052441.102
139	600.000	-0.037	600.002	0.114	6.226	1772052441.341
140	600.000	0.009	599.999	0.106	0.099	1772052441.579
141	600.000	0.014	600.003	0.156	5.980	1772052441.830
142	600.000	0.029	599.999	0.175	6.095	1772052442.081
143	600.000	0.011	600.001	0.166	6.146	1772052442.326
144	600.000	-0.004	600.000	0.206	6.209	1772052442.577
145	600.000	-0.013	599.998	0.203	0.060	1772052442.845
146	600.000	0.011	600.000	0.116	0.136	1772052443.107
147	600.000	-0.047	600.002	0.083	5.835	1772052443.357
148	600.000	0.001	600.003	0.135	5.973	1772052443.629
149	600.000	-0.005	600.003	0.153	6.098	1772052443.913
150	600.000	-0.009	600.001	0.177	0.070	1772052444.154
151	600.000	-0.002	599.998	0.126	6.208	1772052444.410
152	600.000	-0.019	600.000	0.151	0.117	1772052444.658
153	600.000	-0.023	600.001	0.091	6.150	1772052444.889
154	600.000	0.001	599.999	0.098	5.813	1772052445.153
155	600.000	0.001	600.002	0.042	3.981	1772052445.396
156	600.000	-0.035	600.001	0.116	5.743	1772052445.649
157	600.000	-0.039	600.002	0.138	4.847	1772052445.888
158	600.000	0.004	599.998	0.085	3.701	1772052446.149
159	600.000	-0.007	600.001	0.093	5.362	1772052446.402
160	600.000	-0.059	600.003	0.148	5.029	1772052446.642
161	600.000	-0.090	600.001	0.044	4.091	1772052446.899
162	600.000	-0.018	600.000	0.103	5.840	1772052447.159
163	600.000	-0.009	600.001	0.176	4.767	1772052447.419
164	600.000	0.018	600.000	0.019	3.820	1772052447.660
165	600.000	-0.018	599.996	0.125	5.544	1772052447.906
166	600.000	0.002	600.000	0.063	5.913	1772052448.164
167	600.000	0.035	600.000	0.122	3.770	1772052448.393
168	600.000	0.052	600.003	0.026	5.404	1772052448.663
169	600.000	-0.008	599.998	0.089	5.138	1772052448.997
170	600.000	0.027	599.997	0.141	4.429	1772052449.290
171	600.000	0.019	599.998	0.115	3.460	1772052449.520
172	600.000	0.013	600.000	0.081	1.968	1772052449.779
173	600.000	0.010	599.999	0.149	5.740	1772052450.034
174	600.000	0.008	599.999	0.092	3.014	1772052450.272
175	600.000	0.046	600.000	0.052	2.407	1772052450.542
176	600.000	-0.002	600.000	0.134	5.595	1772052450.802
177	600.000	0.029	599.999	0.063	4.507	1772052451.100
178	600.000	0.043	599.998	0.088	2.648	1772052451.323
179	600.000	-0.027	600.000	0.118	0.026	1772052451.597
180	600.000	0.004	600.001	0.044	5.551	1772052451.859
181	600.000	-0.012	600.001	0.031	3.861	1772052452.168
182	600.000	-0.018	600.002	0.135	0.416	1772052452.472
183	600.000	-0.015	599.998	0.069	4.972	1772052452.711
184	600.000	0.031	599.997	0.085	2.733	1772052452.964
185	600.000	0.005	600.001	0.103	0.871	1772052453.226
186	600.000	-0.028	600.007	0.118	5.303	1772052453.503
187	600.000	0.013	600.002	0.108	2.397	1772052453.729
188	600.000	0.035	600.002	0.150	0.210	1772052453.999
189	600.000	-0.006	600.000	0.126	5.561	1772052454.275
190	600.000	-0.007	600.000	0.135	2.998	1772052454.564
191	600.000	-0.026	600.003	0.083	2.590	1772052454.868
192	600.000	-0.005	600.002	0.058	5.323	1772052455.110
193	600.000	0.008	600.003	0.133	5.397	1772052455.341
194	600.000	0.004	600.001	0.040	3.177	1772052455.587
195	600.000	0.003	600.004	0.076	0.358	1772052455.850
196	600.000	0.015	600.002	0.099	4.584	1772052456.108
197	600.000	-0.002	600.000	0.117	3.570	1772052456.364
198	600.000	0.016	600.000	0.063	0.970	1772052456.628
199	600.000	-0.019	600.000	0.149	5.995	1772052456.886
200	600.000	0.006	600.001	0.166	4.575	1772052457.127
201	600.000	0.020	599.999	0.067	2.988	1772052457.384
202	600.000	-0.010	600.004	0.163	6.091	1772052457.639
203	600.000	-0.040	600.000	0.074	4.945	1772052457.939
204	600.000	0.041	600.000	0.081	3.200	1772052458.183
205	600.000	-0.006	599.996	0.145	5.385	1772052458.442
206	600.000	-0.092	600.004	0.062	4.190	1772052458.683
207	600.000	0.002	600.001	0.094	1.797	1772052458.941
208	600.000	-0.042	600.001	0.062	0.427	1772052459.165
209	600.000	-0.034	600.001	0.065	0.045	1772052459.454
210	600.000	-0.010	600.001	0.079	3.066	1772052459.694
211	600.000	0.035	599.998	0.076	5.555	1772052459.932
212	600.000	0.005	599.999	0.107	5.006	1772052460.176
213	600.000	-0.022	600.003	0.091	1.954	1772052460.420
214	600.000	-0.002	599.999	0.084	6.041	1772052460.692
215	600.000	-0.028	599.997	0.112	4.342	1772052460.908
216	600.000	0.064	600.001	0.145	2.908	1772052461.188
217	600.000	-0.003	599.999	0.118	0.536	1772052461.442
218	600.000	-0.031	600.000	0.145	5.225	1772052461.690
219	600.000	0.061	600.000	0.062	2.898	1772052461.944
220	600.000	-0.014	600.004	0.073	5.919	1772052462.200
221	600.000	-0.027	599.996	0.022	0.444	1772052462.439
222	600.000	-0.017	599.999	0.132	2.804	1772052462.675
223	600.000	-0.010	599.998	0.065	5.077	1772052462.927
224	600.000	0.027	600.000	0.028	1.337	1772052463.182
225	600.000	-0.008	599.998	0.132	1.852	1772052463.435
226	600.000	-0.031	600.002	0.125	5.520	1772052463.683
227	600.000	-0.017	600.002	0.012	4.688	1772052463.927
228	600.000	0.006	599.999	0.153	2.219	1772052464.195
229	600.000	0.009	600.002	0.050	2.166	1772052464.414
230	600.000	0.004	600.001	0.113	3.748	1772052464.712
231	600.000	0.002	599.998	0.122	5.767	1772052465.007
232	600.000	-0.003	600.001	0.216	5.941	1772052465.265
233	600.000	0.020	599.997	0.208	5.885	1772052465.511
234	600.000	-0.012	599.999	0.220	5.781	1772052465.755
235	600.000	-0.032	599.999	0.253	5.929	1772052465.978
236	600.000	0.015	599.999	0.209	5.936	1772052466.243
237	600.000	-0.017	600.002	0.238	5.914	1772052466.492
238	600.000	-0.022	600.001	0.273	5.803	1772052466.767
239	600.000	0.048	600.000	0.251	6.071	1772052467.049
240	600.000	-0.088	600.001	0.144	5.378	1772052467.321
241	600.000	-0.016	599.999	0.239	2.222	1772052467.541
242	600.000	0.014	599.999	0.101	2.845	1772052467.818
243	600.000	-0.051	600.001	0.237	5.351	1772052468.047
244	600.000	0.000	599.999	0.222	2.474	1772052468.324
245	600.000	-0.066	599.998	0.093	2.294	1772052468.575
246	600.000	-0.032	599.998	0.185	5.887	1772052468.816
247	600.000	-0.002	600.001	0.090	2.936	1772052469.070
248	600.000	0.009	599.999	0.096	2.709	1772052469.285
249	600.000	0.034	599.998	0.132	6.150	1772052469.557
250	600.000	-0.012	600.001	0.149	5.431	1772052469.819
251	600.000	-0.009	599.999	0.226	2.391	1772052470.130
252	600.000	0.004	600.002	0.092	0.259	1772052470.355
253	600.000	-0.010	600.003	0.196	5.330	1772052470.635
254	600.000	-0.007	599.999	0.234	2.227	1772052470.886
255	600.000	0.005	599.999	0.061	0.288	1772052471.205
256	600.000	-0.029	599.997	0.064	5.030	1772052471.509
257	600.000	-0.014	599.999	0.202	2.317	1772052471.774
258	600.000	-0.012	600.000	0.168	5.549	1772052472.074
259	600.000	0.005	599.997	0.164	4.072	1772052472.291
260	600.000	-0.021	599.998	0.269	2.269	1772052472.564
261	600.000	-0.009	600.000	0.131	5.052	1772052472.799
262	600.000	-0.018	599.996	0.184	5.994	1772052473.053
263	600.000	0.001	599.999	0.216	2.491	1772052473.315
264	600.000	-0.003	600.000	0.129	2.643	1772052473.562
265	600.000	0.015	599.999	0.178	6.029	1772052473.812
266	600.000	-0.020	599.998	0.091	3.985	1772052474.068
267	600.000	-0.004	599.999	0.164	2.095	1772052474.317
268	600.000	0.000	600.001	0.123	5.881	1772052474.536
269	600.000	0.010	600.000	0.152	5.288	1772052474.815
270	600.000	0.032	600.000	0.193	2.543	1772052475.046
271	600.000	0.047	600.002	0.099	5.683	1772052475.321
272	600.000	-0.013	600.001	0.265	5.171	1772052475.580
273	600.000	-0.007	599.998	0.250	2.699	1772052475.822
274	600.000	-0.039	599.999	0.097	2.525	1772052476.068
275	600.000	-0.004	599.998	0.247	5.763	1772052476.296
276	600.000	0.029	600.002	0.133	3.335	1772052476.565
277	600.000	0.020	600.000	0.226	2.581	1772052476.803
278	600.000	-0.009	600.001	0.156	5.587	1772052477.069
279	600.000	-0.017	599.999	0.044	2.718	1772052477.329
280	600.000	-0.019	599.997	0.123	2.398	1772052477.629
281	600.000	-0.004	600.001	0.190	5.695	1772052477.856
282	600.000	0.000	600.001	0.147	5.082	1772052478.130
283	600.000	0.051	599.998	0.218	2.258	1772052478.382
284	600.000	-0.042	600.002	0.119	0.324	1772052478.708
285	600.000	0.033	599.999	0.114	4.856	1772052478.997
286	600.000	-0.016	599.999	0.182	2.319	1772052479.255
287	600.000	0.005	600.002	0.159	5.719	1772052479.507
288	600.000	-0.011	599.999	0.134	4.422	1772052479.757
289	600.000	-0.002	600.001	0.247	2.015	1772052480.008
290	600.000	0.003	600.000	0.066	0.700	1772052480.254
291	600.000	0.015	599.998	0.224	5.637	1772052480.475
292	600.000	-0.009	600.001	0.157	2.923	1772052480.748
293	600.000	0.005	600.000	0.119	1.919	1772052480.999
294	600.000	0.008	599.996	0.273	5.812	1772052481.254
295	600.000	0.026	599.999	0.013	1.599	1772052481.494
296	600.000	-0.022	599.999	0.192	2.491	1772052481.723
297	600.000	-0.001	600.000	0.073	5.369	1772052481.993
298	600.000	-0.025	600.000	0.232	5.440	1772052482.238
299	600.000	-0.023	600.001	0.229	2.090	1772052482.509
300	600.000	0.022	600.002	0.059	5.464	1772052482.772
301	600.000	0.024	599.998	0.192	5.354	1772052483.027
302	600.000	0.029	599.999	0.206	2.519	1772052483.271
303	600.000	-0.003	600.001	0.034	1.850	1772052483.587
304	600.000	-0.010	600.000	0.190	5.747	1772052483.831
305	600.000	-0.011	600.002	0.217	2.253	1772052484.147
306	600.000	-0.021	600.001	0.098	4.313	1772052484.389
307	600.000	-0.043	600.001	0.226	5.727	1772052484.635
308	600.000	-0.021	600.000	0.170	2.455	1772052484.891
309	600.000	0.013	600.000	0.055	2.317	1772052485.146
310	600.000	0.016	600.001	0.222	5.758	1772052485.376
311	600.000	0.027	599.997	0.157	3.300	1772052485.666
312	600.000	0.007	600.002	0.104	2.913	1772052485.956
313	600.000	-0.005	600.000	0.258	5.581	1772052486.207
314	600.000	-0.043	599.998	0.033	3.599	1772052486.428
315	600.000	-0.010	599.998	0.150	2.644	1772052486.701
316	600.000	0.007	600.001	0.115	5.495	1772052486.954
317	600.000	0.008	599.996	0.120	5.285	1772052487.195
318	600.000	-0.032	600.001	0.187	2.226	1772052487.475
319	600.000	-0.007	600.003	0.166	5.802	1772052487.782
320	600.000	0.016	600.002	0.031	4.396	1772052488.084
321	600.000	0.026	600.001	0.105	2.721	1772052488.328
322	600.000	0.005	600.000	0.081	0.455	1772052488.548
323	600.000	-0.028	599.999	0.182	5.692	1772052488.836
324	600.000	0.009	600.000	0.206	2.322	1772052489.075
325	600.000	0.004	599.999	0.059	5.135	1772052489.394
326	600.000	0.015	600.001	0.069	5.161	1772052489.660
327	600.000	-0.016	600.000	0.151	2.094	1772052489.921
328	600.000	-0.014	600.002	0.089	5.395	1772052490.193
329	600.000	-0.009	599.999	0.092	4.795	1772052490.493
330	600.000	0.072	600.002	0.196	2.293	1772052490.734
331	600.000	0.026	599.999	0.093	4.203	1772052490.963
332	600.000	0.020	600.002	0.236	5.030	1772052491.236
333	600.000	0.031	600.003	0.197	2.215	1772052491.487
334	600.000	-0.016	600.002	0.034	0.606	1772052491.766
335	600.000	0.022	600.000	0.215	5.361	1772052492.056
336	600.000	-0.005	600.001	0.235	2.599	1772052492.303
337	600.000	0.018	600.000	0.048	0.121	1772052492.563
338	600.000	-0.022	599.999	0.186	5.634	1772052492.837
339	600.000	0.049	600.001	0.188	2.443	1772052493.092
340	600.000	-0.024	600.000	0.057	0.593	1772052493.358
341	600.000	0.021	600.003	0.223	5.416	1772052493.579
342	600.000	0.009	600.001	0.087	1.975	1772052493.845
343	600.000	0.034	600.000	0.175	2.283	1772052494.087
344	600.000	-0.022	599.999	0.187	5.466	1772052494.365
345	600.000	0.018	600.002	0.144	4.240	1772052494.626
346	600.000	-0.001	600.001	0.193	2.401	1772052494.934
347	600.000	-0.005	600.003	0.076	5.777	1772052495.156
348	600.000	0.012	599.999	0.223	5.175	1772052495.412
349	600.000	0.027	600.001	0.186	1.911	1772052495.650
350	600.000	-0.052	600.004	0.011	4.391	1772052495.917
351	600.000	-0.002	600.000	0.245	5.961	1772052496.165
352	600.000	0.008	599.997	0.171	2.340	1772052496.394
353	600.000	-0.023	600.000	0.055	2.203	1772052496.669
354	600.000	-0.020	600.002	0.250	5.154	1772052496.901
355	600.000	-0.038	600.000	0.141	3.396	1772052497.170
356	600.000	0.011	600.000	0.065	2.187	1772052497.395
357	600.000	-0.006	599.999	0.109	5.646	1772052497.654
358	600.000	-0.001	600.001	0.092	3.856	1772052497.930
359	600.000	-0.002	600.000	0.251	2.570	1772052498.176
360	600.000	-0.012	600.002	0.098	5.562	1772052498.433
361	600.000	0.033	600.000	0.176	5.314	1772052498.671
362	600.000	-0.027	599.999	0.204	2.318	1772052498.922
363	600.000	-0.020	599.998	0.017	3.635	1772052499.144
364	600.000	0.013	599.996	0.169	5.447	1772052499.404
365	600.000	-0.014	599.997	0.156	2.726	1772052499.673
366	600.000	-0.025	600.001	0.094	2.885	1772052499.925
367	600.000	0.017	600.003	0.164	5.715	1772052500.197
368	600.000	-0.024	600.000	0.059	3.010	1772052500.498
369	600.000	-0.022	600.001	0.078	2.083	1772052500.800
370	600.000	0.028	599.998	0.236	5.654	1772052501.044
371	600.000	0.000	600.000	0.113	2.935	1772052501.310
372	600.000	-0.018	599.999	0.095	2.846	1772052501.585
373	600.000	-0.009	600.000	0.206	5.555	1772052501.877
374	600.000	-0.025	600.002	0.114	2.438	1772052502.173
375	600.000	-0.015	599.999	0.046	1.437	1772052502.427
376	600.000	-0.003	599.999	0.160	5.306	1772052502.682
377	600.000	-0.007	600.001	0.136	3.462	1772052502.937
378	600.000	0.027	600.000	0.115	2.239	1772052503.236
379	600.000	0.024	599.994	0.145	5.471	1772052503.483
380	600.000	-0.041	600.000	0.148	4.501	1772052503.730
381	600.000	-0.019	599.998	0.185	2.268	1772052503.982
382	600.000	0.005	600.000	0.073	5.201	1772052504.203
383	600.000	-0.005	599.999	0.214	5.566	1772052504.476
384	600.000	-0.032	599.997	0.194	2.076	1772052504.717
385	600.000	0.018	600.000	0.011	2.602	1772052504.981
386	600.000	0.004	600.002	0.255	5.530	1772052505.227
387	600.000	-0.008	600.000	0.158	2.569	1772052505.487
388	600.000	0.014	599.998	0.042	3.637	1772052505.733
389	600.000	-0.017	599.999	0.211	6.281	1772052505.986
390	600.000	-0.018	599.996	0.134	3.165	1772052506.248
391	600.000	-0.019	599.999	0.063	1.651	1772052506.472
392	600.000	-0.023	599.996	0.143	5.627	1772052506.742
393	600.000	0.009	599.998	0.094	5.606	1772052506.977
394	600.000	-0.031	599.999	0.232	2.518	1772052507.234
395	600.000	-0.000	600.000	0.052	5.003	1772052507.493
396	600.000	0.023	600.002	0.277	5.552	1772052507.728
397	600.000	0.011	600.004	0.203	2.618	1772052507.969
398	600.000	0.011	600.000	0.087	2.665	1772052508.235
399	600.000	0.033	600.000	0.247	5.323	1772052508.486
400	600.000	-0.003	599.999	0.035	2.018	1772052508.717
401	600.000	-0.018	599.998	0.130	2.323	1772052508.990
402	600.000	0.010	600.000	0.090	5.591	1772052509.227
403	600.000	0.010	600.000	0.153	4.793	1772052509.476
404	600.000	0.014	600.001	0.165	2.244	1772052509.737
405	600.000	0.010	600.003	0.109	5.472	1772052509.971
406	600.000	0.003	600.000	0.222	5.625	1772052510.226
407	600.000	-0.007	600.000	0.196	2.749	1772052510.453
408	600.000	0.006	600.002	0.046	1.964	1772052510.722
409	600.000	-0.009	599.999	0.247	5.738	1772052510.994
410	600.000	-0.016	600.005	0.168	3.296	1772052511.301
411	600.000	-0.006	600.001	0.034	6.005	1772052511.546
412	600.000	-0.015	600.000	0.217	5.226	1772052511.829
413	600.000	-0.014	600.000	0.186	3.262	1772052512.044
414	600.000	0.014	599.997	0.138	2.010	1772052512.318
415	600.000	0.013	599.999	0.206	5.716	1772052512.559
416	600.000	0.006	600.001	0.106	4.621	1772052512.793
417	600.000	-0.027	599.998	0.175	2.424	1772052513.062
418	600.000	-0.008	600.001	0.091	0.010	1772052513.319
419	600.000	0.008	600.002	0.226	5.639	1772052513.591
420	600.000	0.018	600.003	0.177	2.209	1772052513.891
421	600.000	-0.014	600.002	0.066	5.595	1772052514.130
422	600.000	0.034	600.002	0.255	5.300	1772052514.357
423	600.000	0.012	600.001	0.166	2.307	1772052514.621
424	600.000	0.031	599.999	0.051	1.737	1772052514.858
425	600.000	-0.007	600.002	0.222	5.505	1772052515.112
426	600.000	0.019	600.001	0.075	2.889	1772052515.359
427	600.000	0.024	600.000	0.166	2.369	1772052515.628
428	600.000	0.000	599.998	0.236	5.872	1772052515.888
429	600.000	-0.022	600.004	0.102	4.726	1772052516.185
430	600.000	-0.017	599.999	0.170	2.137	1772052516.407
431	600.000	0.001	600.002	0.194	6.031	1772052516.683
432	600.000	0.025	600.003	0.126	4.668	1772052516.937
433	600.000	-0.006	599.999	0.210	2.441	1772052517.202
434	600.000	-0.022	600.001	0.076	6.042	1772052517.454
435	600.000	0.007	599.998	0.234	5.565	1772052517.700
436	600.000	-0.008	600.001	0.248	2.394	1772052517.945
437	600.000	-0.013	599.998	0.060	1.547	1772052518.179
438	600.000	-0.006	600.001	0.216	5.654	1772052518.447
439	600.000	-0.001	600.000	0.035	3.152	1772052518.665
440	600.000	-0.018	600.003	0.152	1.895	1772052518.941
441	600.000	-0.014	600.000	0.150	5.999	1772052519.195
442	600.000	0.033	600.003	0.153	3.962	1772052519.486
443	600.000	-0.001	600.000	0.149	1.639	1772052519.741
444	600.000	0.013	599.997	0.157	5.716	1772052520.019
445	600.000	-0.004	599.998	0.074	5.172	1772052520.260
446	600.000	-0.003	600.003	0.175	2.434	1772052520.535
447	600.000	-0.014	600.002	0.061	4.643	1772052520.780
448	600.000	-0.023	600.000	0.253	5.225	1772052521.027
449	600.000	0.008	600.003	0.179	2.916	1772052521.268
450	600.000	-0.004	600.003	0.028	2.755	1772052521.531
451	600.000	-0.002	600.000	0.222	5.398	1772052521.779
452	600.000	-0.022	600.001	0.116	2.727	1772052522.012
453	600.000	0.006	599.999	0.049	2.143	1772052522.293
454	600.000	-0.006	600.000	0.191	5.589	1772052522.527
455	600.000	-0.010	600.002	0.146	4.231	1772052522.789
456	600.000	-0.023	600.000	0.199	1.755	1772052523.047
457	600.000	-0.020	600.001	0.096	5.599	1772052523.351
458	600.000	0.039	599.999	0.130	4.971	1772052523.579
459	600.000	-0.040	600.000	0.242	2.138	1772052523.826
460	600.000	0.022	599.999	0.068	5.092	1772052524.101
461	600.000	-0.016	600.003	0.163	5.153	1772052524.343
462	600.000	-0.004	599.996	0.218	2.780	1772052524.575
463	600.000	-0.039	599.998	0.055	1.737	1772052524.819
464	600.000	0.011	600.001	0.171	5.103	1772052525.097
465	600.000	-0.006	599.998	0.235	2.951	1772052525.341
466	600.000	-0.017	599.999	0.188	1.730	1772052525.592
467	600.000	0.010	599.999	0.169	5.506	1772052525.842
468	600.000	0.051	600.001	0.085	5.617	1772052526.086
469	600.000	-0.048	600.002	0.202	2.445	1772052526.339
470	600.000	-0.040	600.001	0.105	5.678	1772052526.587
471	600.000	-0.042	599.998	0.136	5.157	1772052526.832
472	600.000	-0.008	599.997	0.191	2.902	1772052527.057
473	600.000	-0.007	599.998	0.064	3.213	1772052527.343
474	600.000	0.016	600.001	0.212	5.319	1772052527.605
475	600.000	0.006	600.000	0.180	3.081	1772052527.848
476	600.000	-0.006	599.999	0.077	2.338	1772052528.101
477	600.000	0.009	599.998	0.221	5.394	1772052528.363
478	600.000	0.008	599.999	0.148	3.895	1772052528.645
479	600.000	-0.085	600.001	0.169	2.208	1772052528.897
480	600.000	-0.041	600.000	0.086	0.043	1772052529.152
481	600.000	0.039	599.999	0.145	5.184	1772052529.370
482	600.000	-0.010	600.003	0.175	2.470	1772052529.641
483	600.000	0.005	599.997	0.051	0.683	1772052529.897
484	600.000	0.035	599.999	0.260	5.534	1772052530.145
485	600.000	-0.027	600.000	0.147	2.469	1772052530.397
486	600.000	0.028	599.999	0.103	0.961	1772052530.644
487	600.000	-0.023	599.998	0.236	5.641	1772052530.890
488	600.000	0.001	599.999	0.073	4.053	1772052531.149
489	600.000	-0.001	599.998	0.149	2.219	1772052531.392
490	600.000	-0.055	600.005	0.189	6.199	1772052531.644
491	600.000	0.003	599.998	0.231	4.623	1772052531.897
492	600.000	-0.018	599.999	0.207	2.451	1772052532.135
493	600.000	-0.002	599.997	0.062	6.187	1772052532.396
494	600.000	0.000	599.999	0.191	5.159	1772052532.643
495	600.000	0.003	599.998	0.187	2.539	1772052532.906
496	600.000	0.015	600.003	0.046	1.035	1772052533.188
497	600.000	-0.018	600.001	0.227	5.657	1772052533.436
498	600.000	-0.000	599.996	0.173	3.001	1772052533.677
499	600.000	0.030	600.002	0.123	2.635	1772052533.900
500	600.000	0.015	600.001	0.087	4.918	1772052534.182
501	600.000	0.037	600.002	0.176	3.974	1772052534.399
502	600.000	-0.006	599.997	0.175	2.198	1772052534.666
503	600.000	0.019	599.999	0.081	5.860	1772052534.922
504	600.000	0.007	599.999	0.238	5.380	1772052535.172
505	600.000	-0.029	599.999	0.176	2.375	1772052535.434
506	600.000	-0.008	600.003	0.009	1.122	1772052535.735
507	600.000	0.038	599.998	0.248	5.532	1772052535.959
508	600.000	0.027	600.002	0.215	2.951	1772052536.243
509	600.000	0.022	599.998	0.025	1.459	1772052536.497
510	600.000	0.032	599.996	0.275	5.379	1772052536.753
511	600.000	0.003	600.000	0.158	2.369	1772052537.044
512	600.000	-0.035	599.999	0.078	2.304	1772052537.300
513	600.000	0.007	599.999	0.220	5.716	1772052537.538
514	600.000	0.005	600.001	0.124	3.361	1772052537.801
515	600.000	0.013	600.000	0.127	2.733	1772052538.071
516	600.000	0.032	600.000	0.219	5.770	1772052538.367
517	600.000	0.024	600.000	0.079	5.076	1772052538.595
518	600.000	0.010	599.997	0.220	2.163	1772052538.873
519	600.000	-0.029	599.999	0.134	6.197	1772052539.112
520	600.000	-0.030	599.999	0.228	5.089	1772052539.359
521	600.000	0.011	599.999	0.154	2.359	1772052539.610
522	600.000	-0.031	599.999	0.063	6.151	1772052539.834
523	600.000	-0.005	600.003	0.251	5.541	1772052540.091
524	600.000	-0.040	600.002	0.138	2.758	1772052540.369
525	600.000	0.007	599.998	0.026	4.175	1772052540.688
526	600.000	-0.024	599.999	0.183	5.627	1772052540.976
527	600.000	0.022	599.999	0.198	2.814	1772052541.216
528	600.000	0.019	600.002	0.145	2.007	1772052541.482
529	600.000	0.005	599.999	0.241	5.452	1772052541.737
530	600.000	-0.007	600.000	0.158	3.802	1772052541.994
531	600.000	-0.013	600.001	0.130	2.762	1772052542.259
532	600.000	0.022	600.001	0.190	5.322	1772052542.541
533	600.000	0.006	599.999	0.091	3.521	1772052542.773
534	600.000	-0.016	600.000	0.177	2.151	1772052543.056
535	600.000	-0.001	599.997	0.150	5.379	1772052543.299
536	600.000	-0.010	599.996	0.105	4.694	1772052543.545
537	600.000	0.033	599.998	0.262	2.455	1772052543.801
538	600.000	-0.006	600.000	0.060	0.052	1772052544.052
539	600.000	0.052	600.001	0.273	5.151	1772052544.295
540	600.000	-0.013	600.001	0.259	2.762	1772052544.529
541	600.000	-0.028	600.002	0.084	1.253	1772052544.795
542	600.000	-0.022	599.997	0.208	5.568	1772052545.047
543	600.000	-0.007	600.003	0.153	2.903	1772052545.290
544	600.000	-0.023	600.001	0.101	1.891	1772052545.580
545	600.000	0.010	600.001	0.244	6.002	1772052545.875
546	600.000	0.000	599.998	0.160	3.413	1772052546.109
547	600.000	0.024	599.999	0.185	2.387	1772052546.383
548	600.000	-0.009	600.001	0.224	5.650	1772052546.608
549	600.000	0.054	599.998	0.160	5.404	1772052546.881
550	600.000	0.007	600.003	0.237	2.230	1772052547.138
551	600.000	0.007	600.000	0.160	5.881	1772052547.436
552	600.000	0.008	599.997	0.125	5.245	1772052547.657
553	600.000	0.007	599.999	0.239	2.665	1772052547.927
554	600.000	-0.042	599.999	0.077	4.867	1772052548.195
555	600.000	-0.005	600.003	0.188	5.226	1772052548.516
556	600.000	-0.040	600.000	0.231	2.496	1772052548.815
557	600.000	0.004	599.998	0.094	6.169	1772052549.041
558	600.000	0.005	600.001	0.165	5.261	1772052549.339
559	600.000	0.003	599.998	0.261	2.316	1772052549.609
560	600.000	-0.042	599.999	0.120	6.119	1772052549.880
561	600.000	-0.019	600.000	0.182	5.742	1772052550.108
562	600.000	-0.031	599.999	0.221	2.268	1772052550.385
563	600.000	0.020	600.001	0.034	2.338	1772052550.604
564	600.000	0.011	599.998	0.277	5.639	1772052550.880
565	600.000	0.008	600.000	0.162	2.852	1772052551.137
566	600.000	-0.047	600.001	0.152	1.452	1772052551.376
567	600.000	-0.044	599.995	0.107	5.601	1772052551.615
568	600.000	0.031	600.000	0.130	4.220	1772052551.862
569	600.000	-0.001	600.000	0.227	2.263	1772052552.130
570	600.000	-0.030	600.001	0.109	0.393	1772052552.377
571	600.000	0.008	599.999	0.109	5.412	1772052552.627
572	600.000	0.037	600.000	0.215	2.641	1772052552.886
573	600.000	0.039	600.001	0.087	1.247	1772052553.139
574	600.000	-0.025	600.004	0.266	5.445	1772052553.388
575	600.000	-0.043	600.002	0.240	2.434	1772052553.627
576	600.000	0.001	600.001	0.092	2.185	1772052553.867
577	600.000	-0.010	600.000	0.219	5.763	1772052554.127
578	600.000	-0.015	599.999	0.122	4.173	1772052554.380
579	600.000	-0.005	599.999	0.160	1.810	1772052554.631
580	600.000	0.028	599.999	0.212	5.803	1772052554.878
581	600.000	0.004	600.003	0.162	4.929	1772052555.124
582	600.000	0.013	599.999	0.205	2.396	1772052555.402
583	600.000	0.004	600.000	0.094	5.168	1772052555.686
584	600.000	0.021	600.000	0.188	5.119	1772052555.961
585	600.000	0.010	600.000	0.207	2.401	1772052556.257
586	600.000	-0.007	599.997	0.168	5.961	1772052556.505
587	600.000	0.008	599.999	0.247	5.667	1772052556.736
588	600.000	0.009	600.001	0.203	2.989	1772052556.993
589	600.000	-0.013	599.999	0.051	3.813	1772052557.280
590	600.000	0.033	600.000	0.256	5.253	1772052557.565
591	600.000	0.004	600.004	0.254	2.895	1772052557.796
592	600.000	0.003	599.997	0.102	2.149	1772052558.056
593	600.000	-0.010	600.000	0.217	5.566	1772052558.319
594	600.000	-0.001	600.003	0.187	2.741	1772052558.613
595	600.000	-0.024	600.003	0.089	1.071	1772052558.893
596	600.000	-0.032	600.001	0.264	5.493	1772052559.152
597	600.000	-0.018	599.998	0.149	3.041	1772052559.380
598	600.000	-0.007	599.997	0.138	2.801	1772052559.657
599	600.000	0.015	600.001	0.193	5.823	1772052559.901
600	600.000	0.029	599.999	0.065	3.882	1772052560.221
601	600.000	0.015	599.997	0.186	2.633	1772052560.466
602	600.000	-0.006	600.000	0.126	5.810	1772052560.729
603	600.000	0.010	599.999	0.105	4.980	1772052561.004
604	600.000	-0.022	600.001	0.212	2.488	1772052561.264
605	600.000	-0.004	599.998	0.017	5.919	1772052561.525
606	600.000	-0.006	599.997	0.191	4.725	1772052561.780
607	600.000	-0.009	600.001	0.230	2.633	1772052562.071
608	600.000	0.007	599.999	0.139	0.453	1772052562.310
609	600.000	-0.033	600.003	0.156	5.703	1772052562.580
610	600.000	0.004	600.000	0.257	2.684	1772052562.844
611	600.000	0.010	600.001	0.088	0.015	1772052563.146
612	600.000	0.014	599.999	0.193	4.926	1772052563.441
613	600.000	-0.000	600.000	0.214	2.427	1772052563.700
614	600.000	0.012	600.001	0.022	5.892	1772052563.956
615	600.000	0.014	599.998	0.183	5.063	1772052564.232
616	600.000	-0.035	600.000	0.220	2.524	1772052564.544
617	600.000	-0.014	600.000	0.092	6.035	1772052564.846
618	600.000	-0.034	600.000	0.241	5.074	1772052565.074
619	600.000	0.031	600.001	0.190	2.735	1772052565.312
620	600.000	-0.014	600.002	0.025	1.118	1772052565.577
621	600.000	-0.022	599.997	0.242	5.565	1772052565.820
622	600.000	0.009	599.999	0.155	3.027	1772052566.091
623	600.000	0.027	599.999	0.079	2.728	1772052566.401
624	600.000	-0.014	600.001	0.177	5.501	1772052566.689
625	600.000	-0.038	600.002	0.178	1.919	1772052566.962
626	600.000	0.001	600.000	0.079	0.902	1772052567.268
627	600.000	0.040	600.001	0.214	5.290	1772052567.535
628	600.000	-0.012	600.003	0.213	2.394	1772052567.769
629	600.000	0.002	599.996	0.065	2.325	1772052568.039
630	600.000	-0.006	600.000	0.160	5.646	1772052568.275
631	600.000	-0.008	600.000	0.069	3.462	1772052568.522
632	600.000	-0.027	599.999	0.113	1.463	1772052568.765
633	600.000	0.032	599.999	0.182	6.062	1772052569.038
634	600.000	0.007	600.000	0.107	4.282	1772052569.292
635	600.000	-0.019	600.004	0.241	2.721	1772052569.517
636	600.000	-0.037	599.999	0.036	1.093	1772052569.796
637	600.000	0.003	600.004	0.224	5.486	1772052570.028
638	600.000	-0.055	600.000	0.152	2.306	1772052570.351
639	600.000	-0.008	599.996	0.053	5.892	1772052570.601
640	600.000	0.025	599.997	0.196	5.433	1772052570.853
641	600.000	-0.007	599.998	0.186	2.520	1772052571.087
642	600.000	-0.046	600.003	0.066	2.627	1772052571.358
643	600.000	0.013	599.998	0.293	5.458	1772052571.608
644	600.000	0.005	600.000	0.128	1.977	1772052571.853
645	600.000	0.020	600.001	0.040	2.929	1772052572.133
646	600.000	0.014	600.000	0.173	5.949	1772052572.417
647	600.000	-0.001	599.995	0.146	3.416	1772052572.721
648	600.000	0.023	600.000	0.078	1.914	1772052572.996
649	600.000	0.001	599.996	0.190	5.654	1772052573.275
650	600.000	-0.029	599.999	0.049	3.379	1772052573.499
651	600.000	0.021	600.002	0.172	2.399	1772052573.774
652	600.000	0.039	600.002	0.206	6.095	1772052574.038
653	600.000	-0.016	600.000	0.066	2.660	1772052574.336
654	600.000	-0.014	600.000	0.182	1.958	1772052574.565
655	600.000	-0.032	599.999	0.133	5.760	1772052574.815
656	600.000	0.044	599.998	0.172	4.745	1772052575.072
657	600.000	-0.023	599.998	0.186	2.092	1772052575.334
658	600.000	0.033	599.997	0.093	5.603	1772052575.585
659	600.000	0.007	600.001	0.220	5.778	1772052575.820
660	600.000	-0.009	599.999	0.201	2.440	1772052576.073
661	600.000	-0.014	600.000	0.084	1.321	1772052576.318
662	600.000	0.003	599.998	0.220	5.733	1772052576.573
663	600.000	-0.028	600.002	0.114	2.406	1772052576.825
664	600.000	-0.017	599.999	0.115	2.727	1772052577.093
665	600.000	0.020	600.001	0.212	5.509	1772052577.343
666	600.000	-0.030	600.003	0.134	4.385	1772052577.594
667	600.000	0.039	599.999	0.187	2.316	1772052577.880
668	600.000	0.018	600.004	0.160	5.762	1772052578.160
669	600.000	-0.014	600.001	0.188	3.340	1772052578.454
670	600.000	0.031	599.998	0.127	2.579	1772052578.708
671	600.000	0.005	600.004	0.192	5.924	1772052578.959
672	600.000	0.030	600.001	0.166	4.530	1772052579.217
673	600.000	0.001	600.000	0.171	2.426	1772052579.443
674	600.000	0.031	600.003	0.098	0.629	1772052579.686
675	600.000	0.009	599.998	0.132	5.559	1772052579.970
676	600.000	0.022	599.995	0.242	2.666	1772052580.257
677	600.000	-0.003	599.999	0.053	0.956	1772052580.509
678	600.000	0.014	599.999	0.223	5.303	1772052580.784
679	600.000	-0.001	600.001	0.195	2.506	1772052581.008
680	600.000	0.020	599.997	0.145	2.268	1772052581.273
681	600.000	0.012	599.999	0.232	5.751	1772052581.527
682	600.000	-0.018	600.002	0.158	2.619	1772052581.762
683	600.000	0.032	599.999	0.174	2.759	1772052582.015
684	600.000	0.009	600.001	0.138	5.792	1772052582.248
685	600.000	-0.020	599.997	0.102	4.066	1772052582.544
686	600.000	-0.053	599.999	0.196	2.281	1772052582.850
687	600.000	-0.011	600.000	0.212	6.167	1772052583.131
688	600.000	-0.025	600.000	0.111	3.819	1772052583.427
689	600.000	0.024	600.000	0.122	1.932	1772052583.734
690	600.000	0.012	600.003	0.228	5.824	1772052584.011
691	600.000	0.020	600.002	0.103	3.637	1772052584.268
692	600.000	0.022	599.998	0.050	2.338	1772052584.514
693	600.000	0.015	599.999	0.068	5.835	1772052584.772
694	600.000	0.007	600.001	0.159	4.257	1772052585.030
695	600.000	-0.002	599.998	0.149	2.158	1772052585.337
696	600.000	-0.036	600.000	0.154	5.929	1772052585.565
697	600.000	0.041	599.997	0.039	4.704	1772052585.826
698	600.000	0.007	599.996	0.146	2.280	1772052586.088
699	600.000	-0.004	599.997	0.037	4.343	1772052586.336
700	600.000	0.006	600.001	0.181	5.542	1772052586.563
701	600.000	-0.009	600.001	0.152	2.614	1772052586.797
702	600.000	0.004	600.004	0.085	1.748	1772052587.078
703	600.000	-0.011	600.000	0.207	5.622	1772052587.347
704	600.000	-0.019	600.000	0.163	2.566	1772052587.633
705	600.000	0.003	599.998	0.025	1.604	1772052587.862
706	600.000	0.012	600.001	0.182	5.753	1772052588.129
707	600.000	-0.011	600.000	0.148	3.358	1772052588.392
708	600.000	-0.005	600.002	0.129	1.673	1772052588.675
709	600.000	0.014	600.002	0.179	6.015	1772052588.979
710	600.000	0.006	600.001	0.160	3.348	1772052589.223
711	600.000	0.012	600.001	0.058	1.597	1772052589.492
712	600.000	0.020	600.002	0.265	6.225	1772052589.727
713	600.000	-0.019	599.999	0.060	5.696	1772052589.962
714	600.000	-0.019	599.999	0.178	2.358	1772052590.234
715	600.000	-0.025	600.000	0.126	6.042	1772052590.472
716	600.000	-0.009	599.998	0.220	5.818	1772052590.720
717	600.000	-0.006	599.997	0.199	2.594	1772052590.986
718	600.000	0.026	600.000	0.062	1.960	1772052591.293
719	600.000	0.018	599.999	0.202	5.814	1772052591.519
720	600.000	0.018	600.000	0.118	2.798	1772052591.800
721	600.000	-0.030	600.001	0.092	1.419	1772052592.043
722	600.000	0.002	600.002	0.265	5.828	1772052592.302
723	600.000	-0.004	600.002	0.149	2.631	1772052592.559
724	600.000	-0.020	600.000	0.200	1.865	1772052592.790
725	600.000	0.015	600.002	0.196	5.925	1772052593.112
726	600.000	-0.023	600.003	0.090	3.290	1772052593.365
727	600.000	-0.012	600.001	0.129	2.330	1772052593.600
728	600.000	0.040	600.000	0.167	6.036	1772052593.882
729	600.000	0.012	599.998	0.057	3.590	1772052594.155
730	600.000	0.013	599.998	0.179	2.417	1772052594.427
731	600.000	-0.025	600.000	0.092	5.841	1772052594.658
732	600.000	0.011	600.004	0.120	5.554	1772052594.931
733	600.000	-0.018	599.999	0.150	2.617	1772052595.202
734	600.000	-0.012	600.002	0.151	6.127	1772052595.484
735	600.000	0.021	600.001	0.159	5.386	1772052595.713
736	600.000	-0.015	599.999	0.201	2.712	1772052595.993
737	600.000	-0.027	600.000	0.101	4.856	1772052596.250
738	600.000	0.003	600.000	0.155	5.736	1772052596.550
739	600.000	0.010	600.000	0.243	2.588	1772052596.790
740	600.000	0.030	600.001	0.073	3.092	1772052597.049
741	600.000	0.015	600.002	0.215	5.451	1772052597.286
742	600.000	-0.020	600.000	0.189	2.671	1772052597.564
743	600.000	0.012	599.999	0.002	6.194	1772052597.818
744	600.000	-0.001	599.999	0.163	6.089	1772052598.122
745	600.000	0.016	599.997	0.249	3.096	1772052598.350
746	600.000	-0.020	600.001	0.075	1.869	1772052598.608
747	600.000	-0.055	600.000	0.184	5.820	1772052598.860
748	600.000	0.008	599.999	0.079	3.895	1772052599.111
749	600.000	0.012	599.998	0.276	2.572	1772052599.355
750	600.000	0.030	600.001	0.056	5.422	1772052599.580
751	600.000	-0.042	599.999	0.124	4.955	1772052599.852
752	600.000	-0.006	600.002	0.222	2.567	1772052600.106
753	600.000	-0.008	600.000	0.019	4.901	1772052600.356
754	600.000	0.034	599.997	0.162	5.880	1772052600.613
755	600.000	-0.045	599.999	0.173	2.628	1772052600.869
756	600.000	0.026	599.999	0.075	1.865	1772052601.156
757	600.000	-0.019	600.003	0.228	5.792	1772052601.434
758	600.000	0.035	600.002	0.143	2.885	1772052601.664
759	600.000	-0.014	600.002	0.120	2.805	1772052601.945
760	600.000	-0.016	599.999	0.128	5.937	1772052602.182
761	600.000	-0.010	600.001	0.162	3.504	1772052602.451
762	600.000	-0.017	599.998	0.148	2.529	1772052602.709
763	600.000	0.026	599.999	0.078	0.391	1772052603.007
764	600.000	0.025	599.997	0.122	4.327	1772052603.236
765	600.000	-0.002	599.998	0.144	2.796	1772052603.505
766	600.000	0.007	600.002	0.148	6.278	1772052603.746
767	600.000	0.025	600.000	0.183	5.315	1772052604.000
768	600.000	-0.007	600.000	0.249	2.903	1772052604.245
769	600.000	0.001	600.001	0.069	0.248	1772052604.481
770	600.000	0.011	600.000	0.247	6.010	1772052604.744
771	600.000	0.011	600.000	0.125	2.961	1772052604.976
772	600.000	-0.001	599.994	0.131	2.377	1772052605.252
773	600.000	0.027	599.999	0.209	0.021	1772052605.484
774	600.000	-0.000	600.001	0.044	3.663	1772052605.745
775	600.000	-0.028	600.001	0.155	2.795	1772052605.996
776	600.000	0.024	599.999	0.055	0.574	1772052606.227
777	600.000	0.001	599.999	0.169	5.772	1772052606.502
778	600.000	0.005	600.000	0.168	2.421	1772052606.726
779	600.000	0.019	600.002	0.079	0.597	1772052607.018
780	600.000	-0.005	600.002	0.264	5.556	1772052607.262
781	600.000	0.011	600.003	0.174	2.692	1772052607.584
782	600.000	-0.026	600.004	0.053	1.448	1772052607.896
783	600.000	-0.011	600.002	0.115	5.237	1772052608.188
784	600.000	0.028	599.998	0.172	2.555	1772052608.431
785	600.000	-0.032	599.999	0.022	4.307	1772052608.664
786	600.000	-0.003	600.002	0.205	5.618	1772052608.940
787	600.000	0.036	600.001	0.230	2.698	1772052609.175
788	600.000	-0.034	600.002	0.091	1.964	1772052609.439
789	600.000	-0.061	600.001	0.227	6.183	1772052609.692
790	600.000	-0.014	599.997	0.137	3.444	1772052609.954
791	600.000	0.016	599.999	0.076	1.809	1772052610.233
792	600.000	0.026	600.002	0.201	6.140	1772052610.523
793	600.000	0.028	599.999	0.087	3.127	1772052610.821
794	600.000	-0.006	599.998	0.057	2.276	1772052611.058
795	600.000	-0.006	600.002	0.126	0.054	1772052611.277
796	600.000	-0.004	600.001	0.039	4.324	1772052611.557
797	600.000	-0.036	600.003	0.139	2.533	1772052611.829
798	600.000	0.010	600.000	0.151	5.376	1772052612.074
799	600.000	-0.013	599.999	0.141	5.291	1772052612.398
800	600.000	-0.016	600.000	0.164	2.647	1772052612.671
801	600.000	0.006	600.002	0.173	0.079	1772052612.945
802	600.000	-0.012	600.002	0.067	4.817	1772052613.169
803	600.000	0.021	600.002	0.218	2.604	1772052613.451
804	600.000	0.003	600.000	0.080	5.432	1772052613.673
805	600.000	-0.007	600.000	0.240	5.586	1772052613.947
806	600.000	-0.027	600.000	0.204	2.946	1772052614.189
807	600.000	0.014	600.000	0.115	0.933	1772052614.422
808	600.000	-0.020	599.998	0.170	5.884	1772052614.678
809	600.000	0.021	599.998	0.126	3.083	1772052614.930
810	600.000	-0.005	600.000	0.169	2.824	1772052615.209
811	600.000	0.026	600.003	0.207	5.879	1772052615.450
812	600.000	-0.003	599.996	0.096	3.985	1772052615.688
813	600.000	-0.021	599.997	0.211	2.574	1772052615.935
814	600.000	0.036	600.002	0.130	6.063	1772052616.191
815	600.000	-0.000	600.004	0.218	5.070	1772052616.450
816	600.000	-0.037	600.002	0.154	2.582	1772052616.745
817	600.000	-0.043	600.000	0.086	0.846	1772052616.995
818	600.000	0.000	600.002	0.223	5.360	1772052617.248
819	600.000	0.010	599.998	0.249	2.663	1772052617.497
820	600.000	0.025	600.002	0.053	1.990	1772052617.720
821	600.000	-0.012	600.000	0.141	6.090	1772052617.993
822	600.000	-0.025	600.003	0.236	3.156	1772052618.225
823	600.000	-0.026	599.999	0.083	2.711	1772052618.485
824	600.000	-0.003	600.000	0.178	5.949	1772052618.744
825	600.000	-0.000	599.999	0.055	5.453	1772052618.992
826	600.000	-0.001	600.002	0.197	2.334	1772052619.241
827	600.000	-0.052	599.999	0.044	0.271	1772052619.490
828	600.000	-0.014	599.999	0.153	5.833	1772052619.747
829	600.000	0.022	599.996	0.151	2.675	1772052619.976
830	600.000	-0.033	600.001	0.060	1.836	1772052620.252
831	600.000	-0.022	600.000	0.252	5.569	1772052620.494
832	600.000	-0.036	599.999	0.175	2.928	1772052620.747
833	600.000	0.009	599.998	0.173	3.148	1772052620.998
834	600.000	-0.006	600.002	0.137	5.928	1772052621.242
835	600.000	-0.026	600.002	0.128	4.307	1772052621.502
836	600.000	-0.001	600.002	0.188	2.455	1772052621.789
837	600.000	0.018	599.996	0.181	5.948	1772052622.081
838	600.000	0.005	600.001	0.135	4.211	1772052622.375
839	600.000	0.002	599.999	0.134	2.321	1772052622.618
840	600.000	-0.044	600.001	0.126	6.000	1772052622.879
841	600.000	0.012	600.001	0.129	5.492	1772052623.114
842	600.000	-0.006	600.001	0.200	2.214	1772052623.385
843	600.000	0.009	599.998	0.105	4.667	1772052623.642
844	600.000	-0.001	599.999	0.227	5.610	1772052623.881
845	600.000	0.032	600.001	0.135	2.724	1772052624.129
846	600.000	0.005	599.999	0.115	2.638	1772052624.366
847	600.000	-0.022	599.999	0.226	5.760	1772052624.632
848	600.000	-0.009	600.002	0.100	3.923	1772052624.846
849	600.000	0.009	599.998	0.187	2.393	1772052625.122
850	600.000	0.000	599.998	0.117	5.428	1772052625.377
851	600.000	-0.004	600.004	0.148	5.792	1772052625.604
852	600.000	0.026	599.998	0.170	2.372	1772052625.865
853	600.000	0.005	600.001	0.026	0.298	1772052626.117
854	600.000	-0.001	599.999	0.270	5.831	1772052626.396
855	600.000	-0.008	599.996	0.194	3.065	1772052626.655
856	600.000	0.005	600.002	0.110	1.763	1772052626.899
857	600.000	0.021	599.998	0.232	5.884	1772052627.158
858	600.000	-0.007	600.000	0.146	3.387	1772052627.397
859	600.000	0.015	600.002	0.098	2.939	1772052627.637
860	600.000	-0.039	599.999	0.150	5.659	1772052627.898
861	600.000	0.009	600.001	0.041	4.495	1772052628.135
862	600.000	-0.001	600.000	0.217	2.526	1772052628.395
863	600.000	0.000	600.002	0.136	0.300	1772052628.638
864	600.000	0.016	600.000	0.167	5.140	1772052628.894
865	600.000	-0.009	600.003	0.193	2.575	1772052629.145
866	600.000	0.021	600.000	0.088	1.477	1772052629.396
867	600.000	-0.019	600.000	0.203	5.457	1772052629.638
868	600.000	-0.015	600.000	0.123	3.802	1772052629.893
869	600.000	-0.009	600.001	0.144	2.060	1772052630.134
870	600.000	0.019	600.000	0.135	5.771	1772052630.391
871	600.000	0.005	600.003	0.026	4.261	1772052630.651
872	600.000	0.001	600.000	0.175	2.029	1772052630.968
873	600.000	0.015	600.001	0.252	5.836	1772052631.262
874	600.000	-0.047	600.001	0.054	5.434	1772052631.486
875	600.000	-0.013	600.002	0.126	2.705	1772052631.797
876	600.000	-0.004	600.000	0.155	6.171	1772052632.023
877	600.000	-0.032	599.997	0.147	5.988	1772052632.283
878	600.000	-0.019	600.000	0.166	2.746	1772052632.540
879	600.000	0.010	600.001	0.086	0.727	1772052632.790
880	600.000	-0.004	600.003	0.226	5.967	1772052633.041
881	600.000	0.013	600.001	0.208	2.840	1772052633.266
882	600.000	0.016	600.001	0.189	2.832	1772052633.547
883	600.000	-0.040	600.000	0.227	5.642	1772052633.849
884	600.000	-0.026	599.999	0.237	3.012	1772052634.114
885	600.000	0.019	599.999	0.028	0.975	1772052634.415
886	600.000	-0.028	599.998	0.294	6.023	1772052634.654
887	600.000	0.029	600.004	0.121	3.092	1772052634.921
888	600.000	-0.018	600.004	0.146	2.968	1772052635.216
889	600.000	0.009	600.003	0.228	5.672	1772052635.472
890	600.000	0.051	599.998	0.148	2.989	1772052635.695
891	600.000	-0.010	600.002	0.141	2.685	1772052635.983
892	600.000	0.003	600.001	0.226	6.166	1772052636.206
893	600.000	0.002	599.999	0.096	4.581	1772052636.484
894	600.000	0.017	599.996	0.127	2.707	1772052636.767
895	600.000	0.026	600.000	0.221	6.238	1772052637.039
896	600.000	0.024	600.000	0.103	5.116	1772052637.272
897	600.000	-0.021	599.999	0.129	2.559	1772052637.525
898	600.000	0.003	600.000	0.031	0.645	1772052637.776
899	600.000	0.002	600.000	0.269	5.825	1772052638.047
900	600.000	0.031	600.003	0.205	2.649	1772052638.331
901	600.000	-0.001	600.002	0.059	4.442	1772052638.588
902	600.000	0.027	600.000	0.194	5.448	1772052638.846
903	600.000	-0.058	600.002	0.152	2.414	1772052639.124
904	600.000	0.002	599.999	0.026	3.223	1772052639.379
905	600.000	0.005	600.001	0.240	5.837	1772052639.646
906	600.000	0.012	599.999	0.148	2.404	1772052639.891
907	600.000	-0.032	599.997	0.079	3.016	1772052640.163
908	600.000	-0.002	600.001	0.220	5.788	1772052640.424
909	600.000	-0.024	600.002	0.124	3.860	1772052640.661
910	600.000	-0.017	599.999	0.163	2.691	1772052640.921
911	600.000	0.007	600.000	0.209	0.055	1772052641.227
912	600.000	0.006	599.996	0.127	2.693	1772052641.479
913	600.000	0.005	600.001	0.137	2.806	1772052641.733
914	600.000	-0.037	599.999	0.079	5.928	1772052641.994
915	600.000	-0.010	600.002	0.126	5.214	1772052642.257
916	600.000	-0.012	599.999	0.187	2.998	1772052642.520
917	600.000	0.005	600.000	0.100	6.084	1772052642.773
918	600.000	-0.034	600.000	0.215	5.400	1772052643.052
919	600.000	0.013	600.000	0.178	2.358	1772052643.322
920	600.000	0.029	599.999	0.034	0.469	1772052643.551
921	600.000	-0.012	600.001	0.195	5.654	1772052643.828
922	600.000	-0.024	599.998	0.199	2.503	1772052644.108
923	600.000	-0.022	600.000	0.040	0.371	1772052644.366
924	600.000	0.034	599.995	0.216	5.813	1772052644.618
925	600.000	0.002	600.000	0.171	2.434	1772052644.891
926	600.000	-0.053	599.997	0.003	2.753	1772052645.184
927	600.000	-0.003	600.002	0.218	5.515	1772052645.478
928	600.000	0.024	600.000	0.179	2.598	1772052645.777
929	600.000	-0.001	600.002	0.019	1.495	1772052646.004
930	600.000	-0.010	599.997	0.215	5.966	1772052646.288
931	600.000	0.033	600.002	0.141	2.495	1772052646.582
932	600.000	-0.030	599.996	0.046	5.567	1772052646.835
933	600.000	0.013	600.002	0.161	5.931	1772052647.065
934	600.000	-0.010	600.000	0.114	2.797	1772052647.343
935	600.000	-0.009	600.000	0.076	1.573	1772052647.565
936	600.000	-0.028	599.995	0.203	5.957	1772052647.824
937	600.000	-0.003	599.999	0.044	4.908	1772052648.089
938	600.000	-0.007	600.000	0.186	2.857	1772052648.333
939	600.000	0.004	600.001	0.118	5.890	1772052648.565
940	600.000	-0.011	599.998	0.085	4.989	1772052648.837
941	600.000	0.000	599.998	0.201	2.679	1772052649.090
942	600.000	0.009	599.998	0.056	5.943	1772052649.390
943	600.000	-0.004	599.999	0.168	5.546	1772052649.643
944	600.000	-0.008	600.000	0.206	2.857	1772052649.926
945	600.000	0.009	600.002	0.100	5.760	1772052650.205
946	600.000	0.008	600.000	0.244	5.051	1772052650.471
947	600.000	0.050	599.999	0.206	2.800	1772052650.722
948	600.000	-0.092	600.000	0.030	5.838	1772052650.991
949	600.000	0.001	600.000	0.152	5.577	1772052651.293
950	600.000	0.006	600.000	0.188	2.648	1772052651.546
951	600.000	-0.007	600.001	0.049	5.293	1772052651.775
952	600.000	0.005	600.001	0.180	5.834	1772052652.036
953	600.000	-0.017	599.999	0.139	2.896	1772052652.286
954	600.000	0.027	600.000	0.087	1.401	1772052652.528
955	600.000	-0.011	599.998	0.237	5.715	1772052652.782
956	600.000	0.003	600.002	0.116	3.146	1772052653.062
957	600.000	-0.011	599.996	0.139	2.456	1772052653.335
958	600.000	-0.008	599.997	0.186	0.104	1772052653.614
959	600.000	0.033	600.003	0.049	4.005	1772052653.911
960	600.000	0.021	600.000	0.199	2.455	1772052654.171
961	600.000	0.002	600.003	0.179	0.103	1772052654.471
962	600.000	0.007	599.997	0.040	3.460	1772052654.707
963	600.000	0.024	599.999	0.127	2.405	1772052654.988
964	600.000	-0.024	599.998	0.186	0.089	1772052655.277
965	600.000	-0.011	599.999	0.172	3.592	1772052655.544
966	600.000	-0.010	600.000	0.133	2.660	1772052655.766
967	600.000	-0.016	600.001	0.100	5.874	1772052656.041
968	600.000	0.028	600.001	0.084	4.855	1772052656.294
969	600.000	0.011	600.000	0.134	2.179	1772052656.529
970	600.000	0.001	600.001	0.160	0.330	1772052656.782
971	600.000	0.032	599.999	0.165	5.617	1772052657.021
972	600.000	-0.003	599.999	0.181	2.912	1772052657.296
973	600.000	-0.025	599.998	0.075	2.499	1772052657.526
974	600.000	-0.033	600.004	0.135	6.186	1772052657.799
975	600.000	-0.028	600.003	0.174	3.203	1772052658.074
976	600.000	-0.013	600.001	0.052	1.524	1772052658.342
977	600.000	-0.039	600.000	0.159	6.005	1772052658.595
978	600.000	-0.012	599.998	0.025	4.658	1772052658.854
979	600.000	0.045	599.996	0.130	2.302	1772052659.098
980	600.000	0.021	600.002	0.105	5.736	1772052659.354
981	600.000	0.033	600.000	0.111	5.202	1772052659.592
982	600.000	0.036	599.999	0.221	2.833	1772052659.820
983	600.000	-0.006	600.000	0.064	6.273	1772052660.080
984	600.000	0.009	599.998	0.187	5.810	1772052660.339
985	600.000	-0.018	600.000	0.191	2.908	1772052660.596
986	600.000	-0.009	600.000	0.012	2.094	1772052660.848
987	600.000	0.011	599.998	0.186	0.138	1772052661.092
988	600.000	-0.024	599.999	0.064	4.005	1772052661.330
989	600.000	0.008	600.000	0.173	2.135	1772052661.560
990	600.000	-0.002	600.001	0.111	5.366	1772052661.870
991	600.000	0.022	599.998	0.082	3.957	1772052662.161
992	600.000	-0.008	600.000	0.124	2.332	1772052662.431
993	600.000	-0.019	600.001	0.158	6.172	1772052662.742
994	600.000	0.040	600.000	0.138	3.412	1772052663.046
995	600.000	-0.005	599.996	0.033	2.946	1772052663.283
996	600.000	-0.019	600.000	0.131	5.553	1772052663.531
997	600.000	0.033	600.002	0.122	3.628	1772052663.796
998	600.000	-0.047	600.000	0.097	2.499	1772052664.103
999	600.000	0.037	600.002	0.125	5.576	1772052664.336
1000	600.000	0.034	600.001	0.096	4.396	1772052664.609
1001	600.000	-0.005	599.997	0.163	1.773	1772052664.848
1002	600.000	-0.002	599.999	0.161	0.272	1772052665.098
1003	600.000	-0.013	599.995	0.138	4.878	1772052665.356
1004	600.000	-0.029	600.000	0.273	2.536	1772052665.654
1005	600.000	-0.005	600.000	0.138	5.913	1772052665.910
1006	600.000	0.024	600.000	0.177	5.247	1772052666.152
1007	600.000	-0.023	599.999	0.183	2.716	1772052666.441
1008	600.000	0.044	600.000	0.009	5.983	1772052666.725
1009	600.000	-0.019	600.002	0.171	5.723	1772052666.968
1010	600.000	-0.055	600.005	0.244	2.962	1772052667.224
1011	600.000	-0.002	600.002	0.090	1.819	1772052667.451
1012	600.000	-0.019	600.001	0.127	5.967	1772052667.725
1013	600.000	0.024	599.998	0.154	3.503	1772052668.007
1014	600.000	0.002	600.001	0.131	1.193	1772052668.271
1015	600.000	0.014	599.998	0.193	6.003	1772052668.525
1016	600.000	-0.009	600.000	0.193	3.726	1772052668.814
1017	600.000	0.035	599.998	0.088	1.950	1772052669.051
1018	600.000	0.017	599.999	0.133	5.965	1772052669.308
1019	600.000	-0.032	600.000	0.177	3.886	1772052669.539
1020	600.000	0.023	600.003	0.171	2.754	1772052669.777
1021	600.000	-0.021	600.002	0.064	0.026	1772052670.046
1022	600.000	0.033	600.001	0.144	5.249	1772052670.299
1023	600.000	0.020	599.999	0.149	2.732	1772052670.567
1024	600.000	-0.005	599.999	0.052	5.931	1772052670.855
1025	600.000	0.017	600.000	0.167	5.292	1772052671.090
1026	600.000	-0.018	599.998	0.198	2.944	1772052671.336
1027	600.000	0.001	600.002	0.030	1.313	1772052671.630
1028	600.000	0.013	599.999	0.185	5.816	1772052671.929
1029	600.000	0.022	600.001	0.170	2.632	1772052672.191
1030	600.000	-0.013	600.001	0.063	5.745	1772052672.514
1031	600.000	0.012	599.998	0.200	5.208	1772052672.807
1032	600.000	0.023	600.000	0.188	2.643	1772052673.046
1033	600.000	0.027	600.001	0.017	2.797	1772052673.274
1034	600.000	0.002	599.999	0.239	5.523	1772052673.543
1035	600.000	0.030	600.000	0.197	2.804	1772052673.780
1036	600.000	0.000	600.002	0.137	2.303	1772052674.049
1037	600.000	0.002	599.999	0.163	6.143	1772052674.296
1038	600.000	-0.030	600.004	0.036	3.138	1772052674.542
1039	600.000	-0.001	600.005	0.122	2.416	1772052674.797
1040	600.000	-0.053	600.000	0.104	5.682	1772052675.026
1041	600.000	-0.017	599.999	0.070	4.530	1772052675.315
1042	600.000	-0.005	600.000	0.186	3.111	1772052675.555
1043	600.000	0.022	600.001	0.137	0.824	1772052675.822
1044	600.000	0.008	599.999	0.193	5.369	1772052676.082
1045	600.000	-0.009	600.002	0.205	2.681	1772052676.376
1046	600.000	-0.001	599.999	0.049	6.084	1772052676.602
1047	600.000	-0.024	600.001	0.171	5.546	1772052676.885
1048	600.000	-0.001	599.999	0.123	2.596	1772052677.126
1049	600.000	-0.007	600.003	0.065	1.252	1772052677.375
1050	600.000	-0.007	600.002	0.141	5.680	1772052677.604
1051	600.000	-0.035	600.001	0.139	4.010	1772052677.873
1052	600.000	0.011	600.000	0.130	2.165	1772052678.123
1053	600.000	0.002	600.001	0.128	6.038	1772052678.359
1054	600.000	-0.020	600.002	0.115	5.802	1772052678.624
1055	600.000	0.040	600.002	0.243	2.736	1772052678.857
1056	600.000	-0.025	600.000	0.056	0.400	1772052679.134
1057	600.000	-0.024	600.001	0.215	6.072	1772052679.376
1058	600.000	0.003	600.001	0.219	3.181	1772052679.632
1059	600.000	0.004	600.001	0.101	1.680	1772052679.862
1060	600.000	0.026	599.997	0.125	5.673	1772052680.122
1061	600.000	-0.035	599.997	0.137	3.379	1772052680.385
1062	600.000	0.012	600.001	0.172	2.139	1772052680.612
1063	600.000	0.005	599.999	0.168	6.009	1772052680.870
1064	600.000	-0.030	599.997	0.151	4.631	1772052681.106
1065	600.000	-0.019	599.999	0.265	2.643	1772052681.380
1066	600.000	-0.007	599.999	0.062	6.077	1772052681.621
1067	600.000	-0.025	600.000	0.173	5.488	1772052681.868
1068	600.000	-0.057	600.001	0.273	3.052	1772052682.123
1069	600.000	-0.004	600.000	0.063	2.184	1772052682.364
1070	600.000	-0.009	600.002	0.133	0.055	1772052682.623
1071	600.000	0.003	600.001	0.122	3.443	1772052682.846
1072	600.000	0.013	599.999	0.177	2.494	1772052683.118
1073	600.000	0.007	599.998	0.183	6.205	1772052683.382
1074	600.000	0.007	599.996	0.144	4.634	1772052683.632
1075	600.000	0.006	600.001	0.185	2.294	1772052683.870
1076	600.000	-0.029	600.003	0.112	6.095	1772052684.097
1077	600.000	0.003	599.998	0.214	5.982	1772052684.375
1078	600.000	-0.033	600.002	0.167	2.796	1772052684.602
1079	600.000	0.002	600.004	0.049	1.787	1772052684.867
1080	600.000	-0.008	600.002	0.121	5.440	1772052685.127
1081	600.000	-0.021	600.002	0.105	3.218	1772052685.381
1082	600.000	-0.014	599.997	0.083	1.931	1772052685.619
1083	600.000	-0.011	600.001	0.171	6.036	1772052685.852
1084	600.000	0.017	599.998	0.133	5.305	1772052686.141
1085	600.000	-0.004	599.998	0.170	2.623	1772052686.361
1086	600.000	-0.027	600.000	0.117	6.221	1772052686.624
1087	600.000	0.019	600.004	0.131	5.393	1772052686.885
1088	600.000	-0.014	600.000	0.197	2.566	1772052687.132
1089	600.000	-0.018	599.998	0.035	0.344	1772052687.390
1090	600.000	0.016	600.001	0.237	5.841	1772052687.620
1091	600.000	0.042	600.000	0.120	3.244	1772052687.885
1092	600.000	-0.004	600.000	0.115	1.704	1772052688.102
1093	600.000	0.010	600.000	0.136	0.502	1772052688.364
1094	600.000	0.034	599.999	0.095	4.607	1772052688.644
1095	600.000	0.007	600.001	0.130	2.530	1772052688.945
1096	600.000	0.007	600.001	0.161	6.067	1772052689.167
1097	600.000	0.056	599.999	0.130	5.513	1772052689.436
1098	600.000	-0.007	599.998	0.218	2.646	1772052689.669
1099	600.000	-0.005	600.001	0.064	1.572	1772052689.938
1100	600.000	0.007	600.005	0.117	5.859	1772052690.186
1101	600.000	0.010	600.000	0.151	3.168	1772052690.441
1102	600.000	-0.005	600.000	0.169	1.018	1772052690.687
1103	600.000	0.020	599.999	0.124	5.744	1772052690.913
1104	600.000	-0.020	600.001	0.068	3.133	1772052691.210
1105	600.000	0.033	599.998	0.087	1.358	1772052691.508
1106	600.000	0.001	600.001	0.149	5.506	1772052691.805
1107	600.000	-0.020	600.000	0.080	3.340	1772052692.058
1108	600.000	0.003	599.997	0.139	2.112	1772052692.302
1109	600.000	0.017	600.000	0.145	5.553	1772052692.557
1110	600.000	-0.006	600.001	0.092	4.559	1772052692.814
1111	600.000	0.029	599.997	0.096	2.309	1772052693.068
1112	600.000	0.009	600.002	0.092	0.011	1772052693.322
1113	600.000	-0.013	600.002	0.132	5.401	1772052693.564
1114	600.000	-0.002	600.000	0.184	2.626	1772052693.820
1115	600.000	0.018	600.003	0.091	6.202	1772052694.054
1116	600.000	0.041	600.001	0.181	5.996	1772052694.319
1117	600.000	-0.010	600.000	0.158	3.031	1772052694.550
1118	600.000	0.025	599.999	0.084	2.451	1772052694.799
1119	600.000	-0.002	600.000	0.156	5.848	1772052695.079
1120	600.000	0.002	599.998	0.173	3.476	1772052695.380
1121	600.000	0.001	600.000	0.125	1.680	1772052695.597
1122	600.000	-0.011	599.998	0.161	5.526	1772052695.878
1123	600.000	0.004	599.999	0.101	4.306	1772052696.119
1124	600.000	0.002	600.002	0.122	2.208	1772052696.394
1125	600.000	-0.008	599.998	0.148	6.157	1772052696.683
1126	600.000	-0.037	600.004	0.101	4.070	1772052696.946
1127	600.000	-0.020	600.000	0.145	2.175	1772052697.176
1128	600.000	0.058	600.000	0.071	6.167	1772052697.441
1129	600.000	0.072	600.002	0.123	5.238	1772052697.710
1130	600.000	0.031	599.999	0.171	2.750	1772052698.012
1131	600.000	0.024	599.999	0.066	1.272	1772052698.236
1132	600.000	-0.032	600.001	0.224	5.486	1772052698.486
1133	600.000	0.013	599.998	0.125	2.917	1772052698.758
1134	600.000	0.005	599.997	0.116	1.351	1772052699.007
1135	600.000	0.054	600.002	0.165	6.053	1772052699.253
1136	600.000	0.005	600.000	0.108	4.056	1772052699.480
1137	600.000	0.016	600.000	0.143	1.907	1772052699.749
1138	600.000	-0.039	600.000	0.106	5.444	1772052699.979
1139	600.000	-0.007	600.002	0.129	5.700	1772052700.262
1140	600.000	-0.043	600.003	0.140	2.346	1772052700.492
1141	600.000	0.030	600.002	0.123	6.183	1772052700.748
1142	600.000	0.013	600.000	0.096	5.341	1772052701.030
1143	600.000	0.010	600.002	0.147	2.621	1772052701.334
1144	600.000	-0.025	600.001	0.056	6.247	1772052701.601
1145	600.000	-0.045	600.000	0.195	5.522	1772052701.856
1146	600.000	0.024	599.999	0.186	2.905	1772052702.081
1147	600.000	-0.013	599.997	0.117	0.691	1772052702.369
1148	600.000	0.010	599.998	0.147	5.566	1772052702.640
1149	600.000	-0.004	599.999	0.134	2.578	1772052702.927
1150	600.000	0.010	600.002	0.131	0.979	1772052703.223
1151	600.000	-0.017	600.002	0.199	5.938	1772052703.485
1152	600.000	-0.015	600.001	0.168	2.457	1772052703.729
1153	600.000	-0.012	599.997	0.033	2.842	1772052703.991
1154	600.000	-0.059	600.002	0.165	0.074	1772052704.289
1155	600.000	-0.002	599.998	0.108	3.274	1772052704.525
1156	600.000	-0.004	600.001	0.095	1.382	1772052704.789
1157	600.000	-0.003	600.004	0.239	6.011	1772052705.045
1158	600.000	0.013	600.002	0.169	3.574	1772052705.332
1159	600.000	0.002	600.000	0.118	1.523	1772052705.584
1160	600.000	0.014	600.000	0.144	5.876	1772052705.845
1161	600.000	-0.056	600.000	0.035	0.301	1772052706.102
1162	600.000	-0.024	600.003	0.143	2.664	1772052706.355
1163	600.000	-0.040	599.999	0.053	5.377	1772052706.593
1164	600.000	0.019	599.998	0.177	5.468	1772052706.867
1165	600.000	0.042	599.999	0.114	2.496	1772052707.156
1166	600.000	-0.007	599.999	0.153	0.250	1772052707.485
1167	600.000	0.011	599.998	0.105	3.978	1772052707.774
1168	600.000	0.016	599.996	0.145	2.739	1772052708.021
1169	600.000	0.024	600.003	0.159	5.881	1772052708.301
1170	600.000	0.000	600.003	0.130	4.537	1772052708.579
1171	600.000	0.009	599.998	0.105	2.392	1772052708.852
1172	600.000	-0.025	600.000	0.165	0.049	1772052709.093
1173	600.000	-0.029	600.001	0.113	4.716	1772052709.411
1174	600.000	0.022	600.000	0.214	2.279	1772052709.647
1175	600.000	0.008	599.997	0.171	0.152	1772052709.878
1176	600.000	0.004	600.000	0.115	5.942	1772052710.133
1177	600.000	0.006	599.999	0.198	2.604	1772052710.420
1178	600.000	-0.004	599.998	0.107	0.937	1772052710.656
1179	600.000	-0.003	599.998	0.202	6.122	1772052710.925
1180	600.000	0.011	600.000	0.206	3.218	1772052711.181
1181	600.000	-0.002	600.001	0.095	0.647	1772052711.473
1182	600.000	0.005	599.998	0.089	5.783	1772052711.715
1183	600.000	-0.037	599.997	0.092	2.901	1772052711.967
1184	600.000	0.003	599.999	0.151	2.140	1772052712.217
1185	600.000	-0.029	600.000	0.192	5.931	1772052712.458
1186	600.000	0.032	599.999	0.085	4.262	1772052712.736
1187	600.000	-0.003	600.001	0.170	2.488	1772052712.967
1188	600.000	-0.022	600.001	0.168	0.154	1772052713.219
1189	600.000	0.022	599.998	0.201	5.740	1772052713.435
1190	600.000	0.013	599.996	0.192	3.099	1772052713.734
1191	600.000	-0.012	599.999	0.060	0.464	1772052714.036
1192	600.000	-0.006	599.999	0.180	5.536	1772052714.292
1193	600.000	0.010	600.003	0.218	2.949	1772052714.609
1194	600.000	-0.021	599.999	0.134	5.679	1772052714.908
1195	600.000	0.027	600.003	0.127	4.947	1772052715.153
1196	600.000	0.022	600.001	0.171	2.803	1772052715.368
1197	600.000	-0.030	599.998	0.108	0.936	1772052715.616
1198	600.000	0.004	600.000	0.157	5.965	1772052715.849
1199	600.000	-0.032	600.000	0.121	3.684	1772052716.104
1200	600.000	0.030	600.002	0.079	1.279	1772052716.366
1201	600.000	-0.010	600.001	0.110	5.901	1772052716.607
1202	600.000	-0.001	600.000	0.121	4.866	1772052716.894
1203	600.000	0.013	599.997	0.142	2.543	1772052717.202
1204	600.000	-0.001	599.999	0.125	5.844	1772052717.452
1205	600.000	0.005	600.001	0.064	4.375	1772052717.673
1206	600.000	0.013	600.003	0.192	3.008	1772052717.965
1207	600.000	0.013	600.001	0.147	0.043	1772052718.257
1208	600.000	0.001	599.997	0.213	5.051	1772052718.516
1209	600.000	-0.024	599.997	0.181	2.987	1772052718.823
1210	600.000	-0.004	600.001	0.144	0.018	1772052719.060
1211	600.000	-0.003	600.000	0.102	5.018	1772052719.311
1212	600.000	-0.010	599.998	0.119	2.486	1772052719.572
1213	600.000	-0.001	600.003	0.102	0.483	1772052719.872
1214	600.000	0.008	599.999	0.182	6.027	1772052720.093
1215	600.000	-0.019	599.998	0.167	2.902	1772052720.385
1216	600.000	0.010	599.997	0.070	0.132	1772052720.633
1217	600.000	0.010	600.000	0.193	5.779	1772052720.888
1218	600.000	0.007	600.000	0.177	3.331	1772052721.179
1219	600.000	0.028	600.003	0.142	0.908	1772052721.443
1220	600.000	0.024	599.999	0.223	5.780	1772052721.669
1221	600.000	0.023	600.003	0.068	4.016	1772052721.935
1222	600.000	-0.005	599.999	0.091	1.632	1772052722.212
1223	600.000	0.011	600.003	0.158	6.038	1772052722.513
1224	600.000	0.033	600.000	0.111	3.623	1772052722.817
1225	600.000	0.010	600.002	0.113	1.260	1772052723.066
1226	600.000	-0.040	599.997	0.120	5.631	1772052723.332
1227	600.000	0.021	600.000	0.021	3.662	1772052723.563
1228	600.000	-0.004	600.000	0.062	2.388	1772052723.819
1229	600.000	-0.014	599.999	0.194	6.214	1772052724.070
1230	600.000	0.016	600.003	0.116	5.157	1772052724.297
1231	600.000	-0.047	600.001	0.185	2.421	1772052724.578
1232	600.000	-0.001	600.001	0.113	0.518	1772052724.805
1233	600.000	0.027	600.000	0.181	5.188	1772052725.060
1234	600.000	-0.005	599.999	0.134	3.143	1772052725.306
1235	600.000	-0.006	600.000	0.111	1.075	1772052725.553
1236	600.000	-0.019	600.000	0.139	5.731	1772052725.814
1237	600.000	-0.017	599.996	0.166	3.324	1772052726.057
1238	600.000	0.005	600.001	0.104	1.822	1772052726.332
1239	600.000	-0.023	600.000	0.215	5.859	1772052726.620
1240	600.000	-0.006	600.000	0.166	3.734	1772052726.894
1241	600.000	-0.010	600.000	0.110	1.885	1772052727.184
1242	600.000	-0.006	600.002	0.229	6.016	1772052727.439
1243	600.000	0.017	600.007	0.107	4.114	1772052727.677
1244	600.000	0.037	600.002	0.076	2.067	1772052727.967
1245	600.000	0.048	599.999	0.152	6.203	1772052728.261
1246	600.000	-0.008	600.001	0.172	4.036	1772052728.511
1247	600.000	0.030	599.999	0.075	1.723	1772052728.800
1248	600.000	-0.004	600.001	0.125	5.642	1772052729.058
1249	600.000	0.030	599.998	0.061	4.655	1772052729.332
1250	600.000	-0.006	599.998	0.156	2.662	1772052729.628
1251	600.000	-0.007	599.999	0.210	6.075	1772052729.877
1252	600.000	0.007	599.996	0.104	4.185	1772052730.109
1253	600.000	0.024	599.999	0.171	2.388	1772052730.381
1254	600.000	0.002	599.998	0.068	0.186	1772052730.612
1255	600.000	-0.014	599.999	0.084	5.248	1772052730.886
1256	600.000	-0.002	600.001	0.202	3.142	1772052731.119
1257	600.000	-0.011	599.997	0.095	0.648	1772052731.381
1258	600.000	-0.026	600.000	0.035	6.279	1772052731.630
1259	600.000	-0.017	600.000	0.184	3.497	1772052731.885
1260	600.000	0.016	600.000	0.086	0.773	1772052732.186
1261	600.000	0.004	600.002	0.139	6.085	1772052732.437
1262	600.000	-0.050	599.999	0.130	3.442	1772052732.687
1263	600.000	0.037	600.000	0.116	1.790	1772052732.944
1264	600.000	0.019	599.999	0.198	6.017	1772052733.204
1265	600.000	0.033	600.000	0.070	4.943	1772052733.445
1266	600.000	-0.005	600.000	0.169	2.479	1772052733.727
1267	600.000	0.017	600.000	0.178	0.094	1772052734.023
1268	600.000	-0.047	600.003	0.086	4.107	1772052734.254
1269	600.000	0.009	599.997	0.122	1.783	1772052734.528
1270	600.000	-0.030	599.999	0.133	5.556	1772052734.782
1271	600.000	-0.047	600.002	0.151	5.059	1772052735.037
1272	600.000	0.008	600.000	0.198	3.353	1772052735.271
1273	600.000	0.053	600.004	0.129	1.045	1772052735.507
1274	600.000	-0.017	599.999	0.250	5.649	1772052735.761
1275	600.000	-0.032	600.004	0.174	3.301	1772052736.017
1276	600.000	-0.014	600.001	0.085	1.813	1772052736.274
1277	600.000	-0.009	600.001	0.155	6.151	1772052736.530
1278	600.000	0.006	599.999	0.099	4.280	1772052736.779
1279	600.000	-0.023	600.001	0.113	2.976	1772052737.013
1280	600.000	-0.026	600.000	0.199	0.535	1772052737.256
1281	600.000	-0.016	600.000	0.119	5.727	1772052737.532
1282	600.000	-0.021	600.001	0.169	3.010	1772052737.770
1283	600.000	-0.042	600.000	0.105	1.196	1772052738.017
1284	600.000	-0.005	600.001	0.193	6.121	1772052738.270
1285	600.000	0.005	600.003	0.138	3.322	1772052738.516
1286	600.000	-0.027	599.997	0.116	1.583	1772052738.771
1287	600.000	0.006	600.000	0.158	5.838	1772052739.005
1288	600.000	0.002	600.002	0.125	4.497	1772052739.251
1289	600.000	-0.034	600.000	0.146	2.833	1772052739.521
1290	600.000	-0.022	600.000	0.150	0.080	1772052739.772
1291	600.000	-0.017	600.001	0.138	5.701	1772052740.000
1292	600.000	0.024	599.997	0.200	3.480	1772052740.242
1293	600.000	0.017	599.999	0.095	0.908	1772052740.506
1294	600.000	-0.017	600.001	0.148	5.644	1772052740.750
1295	600.000	0.015	600.003	0.164	3.190	1772052741.011
1296	600.000	0.028	600.000	0.122	1.637	1772052741.250
1297	600.000	0.015	600.002	0.229	5.842	1772052741.520
1298	600.000	-0.010	599.999	0.152	3.911	1772052741.760
1299	600.000	0.021	600.000	0.071	1.590	1772052742.038
1300	600.000	-0.015	599.997	0.179	6.106	1772052742.328
1301	600.000	-0.006	599.997	0.135	4.338	1772052742.581
1302	600.000	-0.024	600.001	0.099	2.732	1772052742.835
1303	600.000	-0.001	599.999	0.193	0.349	1772052743.080
1304	600.000	-0.007	600.000	0.136	4.800	1772052743.346
1305	600.000	-0.003	599.998	0.210	2.553	1772052743.656
1306	600.000	-0.007	599.999	0.195	0.016	1772052743.887
1307	600.000	0.002	600.000	0.082	5.940	1772052744.180
1308	600.000	0.005	600.004	0.126	2.598	1772052744.467
1309	600.000	0.016	600.002	0.145	5.958	1772052744.729
1310	600.000	0.006	599.999	0.069	4.620	1772052745.031
1311	600.000	0.037	600.002	0.145	2.930	1772052745.265
1312	600.000	-0.009	600.002	0.137	1.051	1772052745.505
1313	600.000	0.017	599.999	0.083	5.919	1772052745.751
1314	600.000	-0.010	599.998	0.313	3.420	1772052746.004
1315	600.000	-0.016	599.999	0.063	1.241	1772052746.269
1316	600.000	0.032	599.999	0.190	5.798	1772052746.496
1317	600.000	0.009	600.000	0.098	3.594	1772052746.764
1318	600.000	-0.020	599.999	0.129	2.065	1772052747.011
1319	600.000	-0.010	600.001	0.122	6.058	1772052747.256
1320	600.000	0.019	600.003	0.148	4.585	1772052747.520
1321	600.000	0.013	600.000	0.122	2.592	1772052747.755
1322	600.000	-0.031	600.002	0.120	6.181	1772052748.022
1323	600.000	0.003	600.000	0.169	4.776	1772052748.292
1324	600.000	0.027	600.001	0.173	3.345	1772052748.559
1325	600.000	0.046	599.999	0.011	2.102	1772052748.800
1326	600.000	-0.006	600.000	0.166	4.996	1772052749.052
1327	600.000	0.037	599.996	0.202	3.270	1772052749.272
1328	600.000	-0.015	600.001	0.095	1.679	1772052749.560
1329	600.000	-0.010	600.000	0.140	5.980	1772052749.817
1330	600.000	0.055	600.002	0.111	3.370	1772052750.120
1331	600.000	0.051	600.000	0.138	2.260	1772052750.338
1332	600.000	-0.063	599.999	0.189	6.275	1772052750.595
1333	600.000	0.040	600.002	0.119	4.338	1772052750.867
1334	600.000	0.051	599.999	0.122	2.663	1772052751.196
1335	600.000	0.051	600.002	0.137	6.189	1772052751.503
1336	600.000	0.040	600.003	0.223	3.648	1772052751.732
1337	600.000	-0.013	600.000	0.183	2.613	1772052751.981
1338	600.000	0.033	600.002	0.158	5.712	1772052752.227
1339	600.000	0.025	600.004	0.075	4.255	1772052752.493
1340	600.000	-0.049	600.000	0.128	2.608	1772052752.742
1341	600.000	0.041	600.001	0.162	0.060	1772052752.953
1342	600.000	0.004	600.000	0.186	5.412	1772052753.242
1343	600.000	0.004	600.000	0.161	2.466	1772052753.488
1344	600.000	0.013	599.998	0.092	1.089	1772052753.762
1345	600.000	-0.025	600.003	0.187	5.229	1772052754.055
1346	600.000	-0.043	599.998	0.174	2.977	1772052754.314
1347	600.000	0.038	599.999	0.038	0.817	1772052754.545
1348	600.000	-0.024	599.997	0.091	5.285	1772052754.827
1349	600.000	-0.023	599.998	0.189	3.774	1772052755.073
1350	600.000	-0.003	599.998	0.104	1.610	1772052755.320
1351	600.000	-0.017	599.999	0.200	5.741	1772052755.576
1352	600.000	-0.021	600.001	0.110	3.836	1772052755.868
1353	600.000	-0.010	599.998	0.130	2.712	1772052756.095
1354	600.000	-0.006	600.000	0.182	6.132	1772052756.388
1355	600.000	0.003	600.003	0.132	4.600	1772052756.640
1356	600.000	0.024	600.002	0.120	1.950	1772052756.949
1357	600.000	0.015	599.999	0.184	6.046	1772052757.173
1358	600.000	0.016	600.001	0.132	4.347	1772052757.456
1359	600.000	0.017	599.997	0.212	2.910	1772052757.680
1360	600.000	-0.006	600.004	0.076	0.193	1772052757.927
1361	600.000	0.048	600.000	0.146	5.219	1772052758.206
1362	600.000	0.060	599.998	0.161	3.207	1772052758.495
1363	600.000	-0.050	600.000	0.083	0.165	1772052758.725
1364	600.000	-0.001	599.998	0.210	5.608	1772052759.005
1365	600.000	-0.011	599.998	0.168	3.081	1772052759.256
1366	600.000	0.042	600.002	0.089	0.896	1772052759.556
1367	600.000	-0.029	599.997	0.138	5.700	1772052759.795
1368	600.000	0.011	599.999	0.187	3.713	1772052760.063
1369	600.000	0.007	600.000	0.127	2.199	1772052760.298
1370	600.000	0.002	599.999	0.177	5.849	1772052760.580
1371	600.000	-0.009	599.999	0.080	4.580	1772052760.792
1372	600.000	-0.011	599.999	0.138	2.130	1772052761.057
1373	600.000	0.020	599.997	0.107	0.038	1772052761.333
1374	600.000	-0.012	600.000	0.114	4.911	1772052761.637
1375	600.000	0.039	600.001	0.129	2.503	1772052761.940
1376	600.000	-0.000	600.002	0.136	0.112	1772052762.192
1377	600.000	0.011	599.998	0.116	4.235	1772052762.428
1378	600.000	-0.007	600.001	0.141	2.239	1772052762.704
1379	600.000	0.001	599.997	0.173	5.943	1772052762.961
1380	600.000	-0.008	600.000	0.138	5.196	1772052763.228
1381	600.000	-0.004	599.996	0.176	2.947	1772052763.458
1382	600.000	-0.017	600.001	0.122	1.004	1772052763.713
1383	600.000	0.030	600.001	0.172	5.523	1772052763.965
1384	600.000	-0.003	599.999	0.158	3.620	1772052764.242
1385	600.000	-0.010	600.000	0.111	1.296	1772052764.518
1386	600.000	0.028	599.998	0.166	5.373	1772052764.776
1387	600.000	0.004	600.000	0.192	3.486	1772052765.011
1388	600.000	-0.020	599.999	0.118	2.169	1772052765.284
1389	600.000	-0.027	600.002	0.247	6.225	1772052765.551
1390	600.000	0.019	600.001	0.112	4.020	1772052765.844
1391	600.000	-0.025	600.004	0.178	2.400	1772052766.078
1392	600.000	-0.013	600.001	0.216	5.899	1772052766.356
1393	600.000	-0.016	600.002	0.073	4.981	1772052766.584
1394	600.000	0.013	599.998	0.093	2.301	1772052766.868
1395	600.000	-0.017	600.000	0.127	6.171	1772052767.150
1396	600.000	0.018	600.001	0.097	4.840	1772052767.399
1397	600.000	0.065	599.999	0.145	3.355	1772052767.628
1398	600.000	-0.022	600.000	0.081	0.390	1772052767.926
1399	600.000	0.013	600.002	0.089	5.431	1772052768.165
1400	600.000	0.010	599.997	0.137	3.199	1772052768.430
1401	600.000	-0.019	599.997	0.096	1.168	1772052768.682
1402	600.000	0.016	600.002	0.230	5.804	1772052768.925
1403	600.000	0.012	600.001	0.053	3.344	1772052769.185
1404	600.000	0.030	599.999	0.147	1.965	1772052769.431
1405	600.000	0.029	600.001	0.190	5.876	1772052769.674
1406	600.000	0.029	599.996	0.105	4.985	1772052769.916
1407	600.000	0.001	599.999	0.127	2.944	1772052770.176
1408	600.000	0.038	599.996	0.202	0.361	1772052770.424
1409	600.000	0.023	599.999	0.100	5.448	1772052770.663
1410	600.000	0.009	600.005	0.083	3.147	1772052770.905
1411	600.000	-0.019	599.998	0.065	1.104	1772052771.171
1412	600.000	-0.002	600.000	0.167	5.724	1772052771.414
1413	600.000	-0.007	599.998	0.039	4.009	1772052771.677
1414	600.000	0.016	599.999	0.068	1.517	1772052771.984
1415	600.000	0.002	600.002	0.175	5.609	1772052772.224
1416	600.000	-0.028	599.997	0.122	4.416	1772052772.470
1417	600.000	-0.015	599.998	0.129	2.700	1772052772.720
1418	600.000	0.007	599.998	0.241	6.273	1772052773.002
1419	600.000	-0.000	599.998	0.101	4.426	1772052773.295
1420	600.000	0.029	599.998	0.152	2.740	1772052773.563
1421	600.000	0.025	599.999	0.156	0.414	1772052773.818
1422	600.000	-0.006	600.000	0.130	4.675	1772052774.103
1423	600.000	-0.018	599.999	0.141	2.315	1772052774.374
1424	600.000	0.006	600.000	0.133	0.008	1772052774.600
1425	600.000	-0.015	600.000	0.193	4.665	1772052774.871
1426	600.000	-0.032	599.999	0.220	3.141	1772052775.111
1427	600.000	-0.029	600.002	0.065	1.573	1772052775.344
1428	600.000	-0.024	599.998	0.182	5.764	1772052775.618
1429	600.000	-0.015	600.000	0.211	3.792	1772052775.839
1430	600.000	-0.027	600.000	0.104	2.098	1772052776.094
1431	600.000	0.038	599.999	0.201	6.245	1772052776.372
1432	600.000	-0.017	599.998	0.143	3.793	1772052776.671
1433	600.000	0.004	600.000	0.160	2.376	1772052776.907
1434	600.000	-0.040	600.000	0.232	0.001	1772052777.185
1435	600.000	0.001	600.003	0.088	4.352	1772052777.407
1436	600.000	-0.004	600.003	0.208	2.935	1772052777.686
1437	600.000	-0.024	600.000	0.168	0.159	1772052777.952
1438	600.000	0.006	600.004	0.162	4.975	1772052778.221
1439	600.000	0.027	600.000	0.244	2.837	1772052778.535
1440	600.000	0.027	600.000	0.103	6.064	1772052778.775
1441	600.000	0.017	600.003	0.188	5.219	1772052778.999
1442	600.000	-0.011	600.004	0.185	3.456	1772052779.266
1443	600.000	0.013	600.000	0.113	0.852	1772052779.500
1444	600.000	-0.003	600.001	0.224	5.746	1772052779.775
1445	600.000	0.008	600.001	0.092	4.041	1772052780.020
1446	600.000	-0.003	600.003	0.089	1.604	1772052780.329
1447	600.000	-0.040	599.995	0.205	5.371	1772052780.584
1448	600.000	-0.016	599.997	0.131	4.002	1772052780.842
1449	600.000	0.024	600.001	0.099	2.193	1772052781.147
1450	600.000	0.012	599.999	0.204	6.006	1772052781.377
1451	600.000	-0.032	600.003	0.151	4.181	1772052781.654
1452	600.000	0.028	599.998	0.133	1.782	1772052781.887
1453	600.000	0.003	600.001	0.139	6.005	1772052782.125
1454	600.000	0.001	599.997	0.133	5.411	1772052782.400
1455	600.000	-0.006	600.000	0.189	3.082	1772052782.683
1456	600.000	0.031	600.000	0.061	5.819	1772052782.946
1457	600.000	0.027	599.999	0.220	4.664	1772052783.193
1458	600.000	-0.038	600.001	0.139	2.887	1772052783.465
1459	600.000	-0.022	600.000	0.063	1.301	1772052783.694
1460	600.000	-0.011	600.000	0.230	5.575	1772052783.961
1461	600.000	0.011	600.003	0.128	3.512	1772052784.195
1462	600.000	-0.006	600.002	0.186	1.465	1772052784.467
1463	600.000	-0.023	600.000	0.174	6.091	1772052784.707
1464	600.000	-0.035	599.999	0.143	4.801	1772052784.944
1465	600.000	0.002	600.000	0.161	2.802	1772052785.205
1466	600.000	-0.006	599.999	0.141	0.179	1772052785.436
1467	600.000	-0.019	600.001	0.183	5.156	1772052785.707
1468	600.000	0.013	600.002	0.150	3.386	1772052785.939
1469	600.000	-0.011	599.999	0.094	1.300	1772052786.197
1470	600.000	0.001	600.005	0.165	5.485	1772052786.459
1471	600.000	-0.018	599.995	0.161	3.654	1772052786.689
1472	600.000	0.037	599.999	0.083	1.705	1772052786.951
1473	600.000	0.004	600.002	0.150	5.973	1772052787.188
1474	600.000	0.002	600.000	0.177	4.829	1772052787.474
1475	600.000	-0.029	600.001	0.090	2.051	1772052787.783
1476	600.000	-0.000	599.999	0.186	0.088	1772052788.024
1477	600.000	0.001	599.999	0.231	4.555	1772052788.242
1478	600.000	-0.024	599.999	0.190	3.135	1772052788.522
1479	600.000	0.012	599.998	0.135	0.732	1772052788.757
1480	600.000	-0.022	599.997	0.184	5.568	1772052789.020
1481	600.000	-0.003	599.999	0.203	3.123	1772052789.272
1482	600.000	0.016	599.999	0.113	1.015	1772052789.584
1483	600.000	0.027	599.998	0.147	5.103	1772052789.807
1484	600.000	0.003	599.999	0.154	4.050	1772052790.076
1485	600.000	0.051	599.999	0.097	1.690	1772052790.330
1486	600.000	0.033	600.005	0.235	5.813	1772052790.611
1487	600.000	-0.030	600.003	0.158	3.989	1772052790.869
1488	600.000	-0.009	600.000	0.118	1.749	1772052791.146
1489	600.000	-0.027	600.001	0.204	5.943	1772052791.405
1490	600.000	0.043	600.000	0.149	4.485	1772052791.643
1491	600.000	-0.031	600.002	0.116	2.104	1772052791.903
1492	600.000	-0.074	599.999	0.156	6.175	1772052792.145
1493	600.000	-0.002	600.003	0.183	4.772	1772052792.403
1494	600.000	-0.007	600.002	0.160	3.016	1772052792.699
1495	600.000	-0.005	600.001	0.098	0.561	1772052792.931
1496	600.000	0.005	600.001	0.197	5.799	1772052793.217
1497	600.000	-0.006	600.000	0.189	3.548	1772052793.453
1498	600.000	-0.001	600.003	0.115	1.415	1772052793.675
1499	600.000	0.016	599.996	0.162	5.846	1772052793.952
1500	600.000	0.002	600.000	0.217	4.064	1772052794.185
1501	600.000	0.009	600.001	0.071	2.259	1772052794.438
1502	600.000	-0.046	599.999	0.179	6.095	1772052794.689
1503	600.000	0.009	600.005	0.183	4.472	1772052794.962
1504	600.000	0.003	599.999	0.146	2.754	1772052795.225
1505	600.000	-0.025	599.995	0.241	0.252	1772052795.465
1506	600.000	0.027	600.001	0.142	5.237	1772052795.727
1507	600.000	0.030	600.001	0.113	3.079	1772052796.016
1508	600.000	-0.051	600.002	0.087	0.145	1772052796.266
1509	600.000	-0.025	600.000	0.254	0.079	1772052796.540
1510	600.000	0.014	600.000	0.107	3.063	1772052796.832
1511	600.000	0.005	600.003	0.127	0.106	1772052797.156
1512	600.000	-0.012	599.997	0.135	4.397	1772052797.456
1513	600.000	0.040	600.002	0.171	2.540	1772052797.682
1514	600.000	0.015	600.000	0.104	0.315	1772052797.927
1515	600.000	-0.005	600.003	0.155	4.860	1772052798.185
1516	600.000	-0.002	599.999	0.188	3.302	1772052798.455
1517	600.000	0.015	599.997	0.080	1.237	1772052798.706
1518	600.000	0.033	599.999	0.180	5.500	1772052798.974
1519	600.000	0.026	599.998	0.137	2.945	1772052799.229
1520	600.000	-0.001	599.999	0.121	0.991	1772052799.530
1521	600.000	-0.001	600.002	0.214	5.616	1772052799.773
1522	600.000	-0.004	600.002	0.155	3.532	1772052800.084
1523	600.000	0.020	599.999	0.100	1.150	1772052800.383
1524	600.000	0.016	599.999	0.198	5.328	1772052800.667
1525	600.000	-0.006	599.997	0.230	3.320	1772052800.934
1526	600.000	0.009	600.002	0.162	1.206	1772052801.163
1527	600.000	-0.020	599.999	0.165	5.220	1772052801.437
1528	600.000	-0.032	600.001	0.112	3.550	1772052801.735
1529	600.000	0.018	599.997	0.177	1.265	1772052801.985
1530	600.000	0.009	600.004	0.201	5.714	1772052802.227
1531	600.000	0.020	600.003	0.134	4.101	1772052802.476
1532	600.000	0.035	600.002	0.131	1.292	1772052802.737
1533	600.000	-0.009	599.999	0.191	6.206	1772052802.980
1534	600.000	-0.040	599.997	0.224	4.828	1772052803.225
1535	600.000	-0.012	600.002	0.082	2.291	1772052803.508
1536	600.000	-0.015	599.997	0.179	6.245	1772052803.782
1537	600.000	0.003	599.998	0.161	5.328	1772052804.066
1538	600.000	0.006	600.000	0.205	2.840	1772052804.378
1539	600.000	0.042	599.995	0.195	5.983	1772052804.655
1540	600.000	0.026	599.999	0.086	5.503	1772052804.923
1541	600.000	-0.025	599.999	0.152	2.412	1772052805.169
1542	600.000	-0.011	600.000	0.155	0.234	1772052805.419
1543	600.000	-0.013	599.998	0.101	4.796	1772052805.685
1544	600.000	0.037	599.997	0.183	3.096	1772052805.912
1545	600.000	0.029	600.000	0.147	0.908	1772052806.156
1546	600.000	0.012	599.999	0.159	5.973	1772052806.411
1547	600.000	0.049	600.003	0.164	3.829	1772052806.676
1548	600.000	0.018	600.001	0.040	1.130	1772052806.909
1549	600.000	-0.058	600.001	0.132	6.070	1772052807.159
1550	600.000	-0.009	599.998	0.211	4.032	1772052807.416
1551	600.000	0.023	599.997	0.186	2.173	1772052807.637
1552	600.000	0.027	600.002	0.178	0.226	1772052807.932
1553	600.000	0.006	600.002	0.187	5.230	1772052808.153
1554	600.000	0.031	599.999	0.118	2.817	1772052808.427
1555	600.000	0.000	599.999	0.106	0.550	1772052808.654
1556	600.000	0.022	599.999	0.144	5.519	1772052808.948
1557	600.000	-0.027	600.000	0.218	3.601	1772052809.240
1558	600.000	0.028	600.000	0.072	0.898	1772052809.489
1559	600.000	-0.013	600.001	0.140	5.148	1772052809.718
1560	600.000	-0.017	600.001	0.179	3.562	1772052809.992
1561	600.000	0.002	600.000	0.181	1.968	1772052810.226
1562	600.000	0.000	600.002	0.211	5.733	1772052810.512
1563	600.000	-0.031	600.000	0.186	3.795	1772052810.785
1564	600.000	0.037	600.004	0.139	2.484	1772052811.044
1565	600.000	0.029	599.999	0.144	0.201	1772052811.297
1566	600.000	-0.000	599.999	0.088	4.252	1772052811.551
1567	600.000	0.011	600.000	0.192	2.414	1772052811.805
1568	600.000	-0.036	599.997	0.127	6.099	1772052812.097
1569	600.000	-0.032	599.999	0.183	4.863	1772052812.352
1570	600.000	-0.008	599.998	0.161	2.887	1772052812.612
1571	600.000	-0.021	599.997	0.125	0.041	1772052812.857
1572	600.000	-0.006	599.996	0.151	4.717	1772052813.153
1573	600.000	0.015	599.998	0.184	2.796	1772052813.439
1574	600.000	0.044	600.001	0.157	0.585	1772052813.700
1575	600.000	0.022	600.002	0.177	5.329	1772052813.950
1576	600.000	-0.016	600.000	0.172	3.266	1772052814.206
1577	600.000	0.041	599.999	0.094	0.938	1772052814.506
1578	600.000	-0.017	599.999	0.219	5.245	1772052814.757
1579	600.000	0.001	599.996	0.247	3.253	1772052814.996
1580	600.000	-0.036	600.002	0.034	2.530	1772052815.246
1581	600.000	-0.011	600.000	0.259	5.974	1772052815.485
1582	600.000	-0.048	600.003	0.153	4.237	1772052815.746
1583	600.000	0.007	600.001	0.130	2.240	1772052815.993
1584	600.000	0.004	600.004	0.264	0.245	1772052816.229
1585	600.000	0.013	599.999	0.099	5.186	1772052816.506
1586	600.000	-0.010	600.001	0.178	2.873	1772052816.784
1587	600.000	0.029	600.005	0.187	0.074	1772052817.070
1588	600.000	0.058	600.002	0.129	4.925	1772052817.308
1589	600.000	-0.028	600.001	0.137	2.447	1772052817.558
1590	600.000	-0.010	599.997	0.032	1.146	1772052817.828
1591	600.000	-0.006	599.999	0.157	5.047	1772052818.088
1592	600.000	0.033	600.000	0.196	2.748	1772052818.402
1593	600.000	0.005	600.001	0.185	0.298	1772052818.698
1594	600.000	-0.003	599.999	0.158	5.268	1772052818.935
1595	600.000	0.020	600.000	0.194	2.925	1772052819.221
1596	600.000	-0.015	600.000	0.172	0.665	1772052819.465
1597	600.000	-0.007	599.998	0.118	5.298	1772052819.729
1598	600.000	0.005	599.999	0.111	3.393	1772052819.987
1599	600.000	0.001	600.001	0.152	1.231	1772052820.274
1600	600.000	-0.043	600.002	0.193	5.395	1772052820.528
1601	600.000	-0.001	600.000	0.133	3.801	1772052820.787
1602	600.000	0.001	599.997	0.082	2.068	1772052821.029
1603	600.000	0.006	600.001	0.152	5.801	1772052821.313
1604	600.000	-0.014	600.000	0.164	3.539	1772052821.599
1605	600.000	-0.016	600.000	0.086	0.974	1772052821.854
1606	600.000	-0.027	599.999	0.218	6.253	1772052822.080
1607	600.000	-0.009	600.000	0.120	4.325	1772052822.343
1608	600.000	-0.002	600.000	0.156	2.857	1772052822.597
1609	600.000	0.030	599.997	0.067	5.800	1772052822.837
1610	600.000	0.034	600.002	0.159	4.648	1772052823.092
1611	600.000	-0.005	600.002	0.158	3.508	1772052823.361
1612	600.000	0.027	599.997	0.097	0.521	1772052823.642
1613	600.000	0.021	599.999	0.219	4.905	1772052823.920
1614	600.000	0.042	599.997	0.211	3.279	1772052824.147
1615	600.000	-0.048	599.999	0.097	1.046	1772052824.423
1616	600.000	-0.005	599.999	0.169	5.279	1772052824.708
1617	600.000	-0.038	600.000	0.223	3.621	1772052824.991
1618	600.000	0.008	600.000	0.050	0.972	1772052825.298
1619	600.000	-0.007	600.001	0.179	5.660	1772052825.553
1620	600.000	-0.009	600.000	0.149	3.871	1772052825.787
1621	600.000	0.008	599.999	0.065	2.395	1772052826.045
1622	600.000	0.019	600.003	0.175	6.213	1772052826.272
1623	600.000	0.081	600.001	0.238	4.086	1772052826.537
1624	600.000	-0.022	599.999	0.131	2.260	1772052826.768
1625	600.000	0.011	599.997	0.162	0.177	1772052827.036
1626	600.000	-0.017	599.999	0.152	4.868	1772052827.279
1627	600.000	0.029	600.001	0.066	2.853	1772052827.529
1628	600.000	0.025	600.002	0.148	0.607	1772052827.773
1629	600.000	0.044	599.996	0.158	5.866	1772052828.017
1630	600.000	0.019	599.999	0.285	4.039	1772052828.282
1631	600.000	0.021	599.997	0.140	1.706	1772052828.515
1632	600.000	-0.019	599.999	0.262	6.107	1772052828.781
1633	600.000	0.028	599.999	0.121	3.772	1772052829.036
1634	600.000	-0.002	600.002	0.148	2.871	1772052829.268
1635	600.000	-0.006	599.998	0.236	0.117	1772052829.545
1636	600.000	0.020	600.000	0.179	4.752	1772052829.846
1637	600.000	0.024	600.000	0.123	2.049	1772052830.091
1638	600.000	0.015	600.002	0.128	0.537	1772052830.373
1639	600.000	-0.027	600.000	0.111	4.700	1772052830.651
1640	600.000	0.005	599.999	0.090	2.617	1772052830.907
1641	600.000	-0.014	599.997	0.144	0.474	1772052831.147
1642	600.000	-0.002	599.999	0.225	5.845	1772052831.422
1643	600.000	-0.013	600.000	0.206	3.465	1772052831.653
1644	600.000	-0.007	600.001	0.081	1.051	1772052831.904
1645	600.000	0.040	599.997	0.185	5.810	1772052832.156
1646	600.000	0.009	600.002	0.112	4.050	1772052832.389
1647	600.000	0.041	600.000	0.114	2.400	1772052832.657
1648	600.000	0.026	600.003	0.160	0.114	1772052832.894
1649	600.000	-0.033	599.997	0.189	4.992	1772052833.180
1650	600.000	-0.015	599.998	0.176	2.495	1772052833.488
1651	600.000	0.054	600.000	0.268	0.128	1772052833.754
1652	600.000	0.008	600.002	0.138	4.497	1772052833.998
1653	600.000	-0.038	599.998	0.191	2.629	1772052834.265
1654	600.000	0.011	600.001	0.212	6.136	1772052834.509
1655	600.000	0.028	600.002	0.143	5.211	1772052834.752
1656	600.000	-0.003	599.999	0.221	3.001	1772052835.010
1657	600.000	-0.025	599.999	0.076	6.245	1772052835.244
1658	600.000	-0.013	600.001	0.217	5.434	1772052835.490
1659	600.000	-0.026	599.999	0.212	3.789	1772052835.751
1660	600.000	0.021	599.998	0.144	1.513	1772052835.996
1661	600.000	-0.006	599.999	0.244	5.662	1772052836.218
1662	600.000	0.046	600.000	0.176	4.306	1772052836.492
1663	600.000	-0.008	600.002	0.160	2.970	1772052836.748
1664	600.000	0.022	599.999	0.095	0.664	1772052837.020
1665	600.000	-0.049	599.999	0.176	4.397	1772052837.267
1666	600.000	0.002	599.999	0.204	2.780	1772052837.525
1667	600.000	0.026	600.000	0.147	0.234	1772052837.776
1668	600.000	-0.048	599.997	0.214	5.610	1772052838.036
1669	600.000	-0.002	599.998	0.135	3.301	1772052838.277
1670	600.000	-0.015	599.998	0.134	1.093	1772052838.497
1671	600.000	0.043	599.997	0.208	6.187	1772052838.768
1672	600.000	-0.041	599.997	0.178	4.354	1772052839.009
1673	600.000	-0.001	599.997	0.130	2.759	1772052839.251
1674	600.000	0.011	600.003	0.216	0.457	1772052839.505
1675	600.000	-0.007	600.003	0.208	5.710	1772052839.776
1676	600.000	0.015	599.999	0.183	3.043	1772052840.009
1677	600.000	-0.002	599.998	0.075	0.695	1772052840.244
1678	600.000	-0.003	600.000	0.210	6.020	1772052840.531
1679	600.000	-0.030	599.999	0.226	3.536	1772052840.743
1680	600.000	0.016	600.001	0.105	1.972	1772052841.019
1681	600.000	0.014	600.003	0.182	0.044	1772052841.277
1682	600.000	0.018	600.003	0.127	4.284	1772052841.528
1683	600.000	0.020	600.003	0.182	1.969	1772052841.756
1684	600.000	0.004	599.999	0.114	0.536	1772052842.002
1685	600.000	0.027	600.002	0.177	4.903	1772052842.280
1686	600.000	0.023	599.997	0.161	3.459	1772052842.520
1687	600.000	0.041	600.000	0.146	0.373	1772052842.767
1688	600.000	0.001	600.004	0.126	5.603	1772052843.025
1689	600.000	-0.043	600.000	0.181	3.505	1772052843.325
1690	600.000	-0.030	599.997	0.178	0.586	1772052843.586
1691	600.000	-0.011	599.999	0.191	5.304	1772052843.906
1692	600.000	-0.038	600.002	0.155	3.206	1772052844.204
1693	600.000	0.008	600.001	0.172	0.527	1772052844.426
1694	600.000	-0.035	600.002	0.184	5.237	1772052844.710
1695	600.000	0.019	599.999	0.191	3.373	1772052844.943
1696	600.000	0.015	600.000	0.119	1.031	1772052845.216
1697	600.000	0.023	600.000	0.155	5.604	1772052845.479
1698	600.000	0.008	599.998	0.264	3.681	1772052845.772
1699	600.000	0.015	600.003	0.097	1.666	1772052845.997
1700	600.000	0.019	599.999	0.123	5.937	1772052846.270
1701	600.000	0.025	599.998	0.109	4.733	1772052846.502
1702	600.000	-0.005	600.000	0.070	2.952	1772052846.784
1703	600.000	-0.022	600.002	0.163	6.164	1772052847.067
1704	600.000	-0.040	599.998	0.141	4.281	1772052847.318
1705	600.000	0.017	600.001	0.185	2.748	1772052847.572
1706	600.000	-0.005	600.001	0.177	0.026	1772052847.848
1707	600.000	-0.026	600.000	0.100	4.922	1772052848.082
1708	600.000	0.001	600.004	0.192	3.458	1772052848.356
1709	600.000	0.026	600.000	0.100	0.817	1772052848.593
1710	600.000	0.043	599.997	0.217	5.906	1772052848.858
1711	600.000	0.025	599.999	0.128	4.287	1772052849.107
1712	600.000	-0.032	600.001	0.105	1.377	1772052849.335
1713	600.000	-0.012	600.000	0.233	6.187	1772052849.585
1714	600.000	0.025	600.000	0.132	4.601	1772052849.829
1715	600.000	0.011	600.000	0.127	2.801	1772052850.097
1716	600.000	0.012	600.000	0.131	0.159	1772052850.362
1717	600.000	0.017	599.998	0.175	5.442	1772052850.668
1718	600.000	-0.024	599.995	0.109	1.596	1772052850.952
1719	600.000	0.017	599.999	0.146	0.374	1772052851.207
1720	600.000	-0.006	599.998	0.125	5.344	1772052851.478
1721	600.000	0.012	599.999	0.135	3.135	1772052851.732
1722	600.000	0.008	599.998	0.181	0.560	1772052851.977
1723	600.000	-0.007	600.000	0.115	5.498	1772052852.222
1724	600.000	-0.015	600.001	0.158	3.250	1772052852.453
1725	600.000	-0.004	600.003	0.140	1.296	1772052852.717
1726	600.000	0.050	599.999	0.141	5.997	1772052852.973
1727	600.000	0.020	600.001	0.173	3.908	1772052853.216
1728	600.000	-0.020	600.003	0.169	3.188	1772052853.463
1729	600.000	0.007	599.999	0.135	5.912	1772052853.729
1730	600.000	0.013	600.003	0.104	5.124	1772052853.977
1731	600.000	-0.080	599.999	0.205	3.424	1772052854.203
1732	600.000	-0.055	599.998	0.181	0.464	1772052854.465
1733	600.000	-0.013	599.998	0.148	5.770	1772052854.731
1734	600.000	0.007	600.000	0.140	2.752	1772052854.978
1735	600.000	-0.029	600.000	0.108	1.025	1772052855.227
1736	600.000	0.001	600.000	0.253	5.778	1772052855.476
1737	600.000	0.009	600.002	0.169	4.004	1772052855.715
1738	600.000	0.032	599.999	0.122	2.568	1772052855.954
1739	600.000	0.007	600.000	0.126	0.036	1772052856.228
1740	600.000	-0.007	599.999	0.067	5.339	1772052856.461
1741	600.000	0.044	600.001	0.222	3.020	1772052856.727
1742	600.000	-0.042	599.997	0.062	0.294	1772052856.966
1743	600.000	0.010	599.998	0.157	5.775	1772052857.197
1744	600.000	-0.017	600.000	0.101	3.192	1772052857.476
1745	600.000	-0.017	600.003	0.113	1.284	1772052857.701
1746	600.000	0.013	600.001	0.196	5.809	1772052857.979
1747	600.000	-0.024	599.999	0.091	4.746	1772052858.216
1748	600.000	0.020	600.001	0.063	2.655	1772052858.497
1749	600.000	0.014	600.002	0.204	6.267	1772052858.776
1750	600.000	0.002	600.000	0.161	4.622	1772052859.034
1751	600.000	0.014	599.998	0.078	2.902	1772052859.291
1752	600.000	-0.016	600.000	0.138	6.156	1772052859.587
1753	600.000	0.001	599.997	0.055	5.376	1772052859.849
1754	600.000	-0.032	600.000	0.062	2.662	1772052860.090
1755	600.000	0.030	600.000	0.135	0.341	1772052860.351
1756	600.000	0.003	599.998	0.102	5.464	1772052860.600
1757	600.000	0.004	599.997	0.031	2.663	1772052860.833
1758	600.000	0.000	599.999	0.100	1.007	1772052861.105
1759	600.000	-0.031	600.001	0.068	6.095	1772052861.362
1760	600.000	-0.014	600.004	0.182	3.910	1772052861.661
1761	600.000	-0.006	599.999	0.007	2.286	1772052861.889
1762	600.000	-0.012	600.001	0.205	6.072	1772052862.168
1763	600.000	0.037	599.998	0.173	3.926	1772052862.471
1764	600.000	-0.029	600.001	0.110	1.285	1772052862.727
1765	600.000	-0.007	599.998	0.188	5.842	1772052862.950
1766	600.000	0.020	599.998	0.109	5.098	1772052863.211
1767	600.000	0.024	600.000	0.116	2.640	1772052863.433
1768	600.000	0.027	599.998	0.160	6.157	1772052863.732
1769	600.000	0.017	599.996	0.158	5.965	1772052863.948
1770	600.000	0.036	600.000	0.116	3.043	1772052864.220
1771	600.000	-0.005	600.001	0.091	0.167	1772052864.464
1772	600.000	-0.027	600.003	0.151	5.555	1772052864.737
1773	600.000	0.023	600.000	0.217	3.862	1772052865.017
1774	600.000	-0.012	600.001	0.094	0.666	1772052865.288
1775	600.000	0.018	599.999	0.178	5.823	1772052865.518
1776	600.000	0.014	600.000	0.205	3.656	1772052865.782
1777	600.000	-0.025	600.000	0.114	1.632	1772052866.013
1778	600.000	-0.013	599.999	0.192	5.938	1772052866.282
1779	600.000	0.026	600.000	0.137	4.232	1772052866.540
1780	600.000	-0.015	600.002	0.135	2.808	1772052866.769
1781	600.000	0.020	600.000	0.127	0.193	1772052867.042
1782	600.000	0.002	599.995	0.140	5.054	1772052867.270
1783	600.000	-0.013	600.000	0.178	3.108	1772052867.537
1784	600.000	-0.030	600.002	0.052	1.314	1772052867.779
1785	600.000	-0.002	600.000	0.166	5.603	1772052868.046
1786	600.000	-0.020	600.000	0.057	2.951	1772052868.291
1787	600.000	-0.027	600.000	0.160	0.981	1772052868.513
1788	600.000	-0.038	599.996	0.205	5.988	1772052868.773
1789	600.000	0.011	600.000	0.174	4.032	1772052869.020
1790	600.000	0.027	600.002	0.112	3.382	1772052869.300
1791	600.000	0.014	599.997	0.157	0.219	1772052869.593
1792	600.000	-0.010	600.003	0.086	4.220	1772052869.855
1793	600.000	-0.011	600.001	0.062	2.341	1772052870.080
1794	600.000	-0.047	600.002	0.149	6.110	1772052870.353
1795	600.000	0.029	600.001	0.187	5.266	1772052870.579
1796	600.000	-0.017	599.999	0.154	3.247	1772052870.836
1797	600.000	-0.019	600.001	0.122	0.416	1772052871.088
1798	600.000	0.021	600.004	0.149	5.550	1772052871.365
1799	600.000	-0.009	599.997	0.246	3.550	1772052871.616
1800	600.000	0.029	599.997	0.051	1.058	1772052871.921
1801	600.000	-0.010	600.003	0.185	6.106	1772052872.138
1802	600.000	0.003	600.004	0.128	3.661	1772052872.416
1803	600.000	-0.015	600.002	0.062	2.903	1772052872.661
1804	600.000	-0.032	600.002	0.170	5.796	1772052872.912
1805	600.000	0.008	600.002	0.147	3.686	1772052873.153
1806	600.000	-0.011	600.001	0.116	2.148	1772052873.387
1807	600.000	-0.022	599.997	0.212	0.419	1772052873.657
1808	600.000	-0.018	600.002	0.174	5.169	1772052873.897
1809	600.000	-0.011	600.003	0.159	3.408	1772052874.163
1810	600.000	0.031	599.999	0.070	1.263	1772052874.414
1811	600.000	-0.007	599.997	0.165	5.876	1772052874.652
1812	600.000	0.004	600.000	0.175	3.863	1772052874.899
1813	600.000	-0.013	599.996	0.103	1.882	1772052875.127
1814	600.000	0.007	600.000	0.180	5.987	1772052875.419
1815	600.000	0.026	600.000	0.130	4.467	1772052875.666
1816	600.000	0.010	599.999	0.095	1.908	1772052875.943
1817	600.000	-0.070	600.001	0.199	6.272	1772052876.247
1818	600.000	-0.025	600.001	0.104	4.441	1772052876.487
1819	600.000	0.006	600.002	0.147	2.705	1772052876.725
1820	600.000	0.039	599.997	0.247	0.386	1772052876.984
1821	600.000	-0.032	600.000	0.125	4.670	1772052877.216
1822	600.000	0.015	600.004	0.218	3.496	1772052877.491
1823	600.000	-0.037	599.999	0.122	0.509	1772052877.743
1824	600.000	-0.034	599.998	0.190	5.968	1772052877.990
1825	600.000	0.016	600.000	0.225	3.737	1772052878.234
1826	600.000	-0.008	599.997	0.085	0.747	1772052878.504
1827	600.000	-0.018	600.000	0.240	5.970	1772052878.780
1828	600.000	-0.025	600.001	0.129	3.906	1772052879.043
1829	600.000	0.026	600.000	0.153	1.771	1772052879.277
1830	600.000	-0.002	599.998	0.166	6.250	1772052879.555
1831	600.000	0.013	599.998	0.179	4.022	1772052879.808
1832	600.000	-0.008	600.001	0.112	2.580	1772052880.118
1833	600.000	-0.004	599.998	0.191	6.103	1772052880.422
1834	600.000	0.052	599.997	0.092	4.159	1772052880.653
1835	600.000	-0.028	600.003	0.069	1.842	1772052880.910
1836	600.000	0.020	600.001	0.195	0.100	1772052881.176
1837	600.000	0.018	600.005	0.072	4.206	1772052881.411
1838	600.000	-0.000	600.000	0.111	2.644	1772052881.661
1839	600.000	-0.004	600.000	0.143	0.319	1772052881.915
1840	600.000	0.022	600.001	0.140	5.563	1772052882.201
1841	600.000	0.033	600.001	0.132	3.020	1772052882.501
1842	600.000	-0.005	599.997	0.205	0.484	1772052882.744
1843	600.000	-0.010	600.002	0.179	0.014	1772052882.976
1844	600.000	0.014	600.002	0.157	3.573	1772052883.226
1845	600.000	-0.001	600.001	0.036	1.512	1772052883.468
1846	600.000	-0.002	600.001	0.212	6.156	1772052883.751
1847	600.000	0.007	600.000	0.150	4.681	1772052884.009
1848	600.000	0.011	600.000	0.130	1.189	1772052884.305
1849	600.000	0.032	599.999	0.170	5.828	1772052884.517
1850	600.000	-0.004	600.003	0.106	4.456	1772052884.795
1851	600.000	-0.010	599.999	0.073	3.731	1772052885.046
1852	600.000	-0.021	600.003	0.109	5.748	1772052885.364
1853	600.000	-0.008	600.003	0.177	4.240	1772052885.599
1854	600.000	0.010	600.001	0.098	2.790	1772052885.844
1855	600.000	-0.012	599.994	0.091	0.156	1772052886.091
1856	600.000	-0.011	599.998	0.108	5.183	1772052886.394
1857	600.000	-0.067	600.002	0.105	2.443	1772052886.691
1858	600.000	0.012	599.996	0.150	6.064	1772052886.946
1859	600.000	-0.014	600.000	0.231	4.745	1772052887.256
1860	600.000	-0.044	599.999	0.029	3.460	1772052887.551
1861	600.000	-0.041	600.002	0.178	6.144	1772052887.802
1862	600.000	-0.015	599.999	0.116	3.927	1772052888.027
1863	600.000	-0.008	600.000	0.074	2.828	1772052888.297
1864	600.000	-0.000	600.002	0.046	0.930	1772052888.538
1865	600.000	0.054	600.000	0.162	5.635	1772052888.790
1866	600.000	0.015	599.999	0.177	3.396	1772052889.047
1867	600.000	0.017	599.999	0.127	1.045	1772052889.302
1868	600.000	0.022	600.001	0.160	5.849	1772052889.564
1869	600.000	0.012	600.001	0.116	2.651	1772052889.866
1870	600.000	-0.027	600.002	0.112	1.455	1772052890.096
1871	600.000	0.024	600.000	0.184	5.497	1772052890.354
1872	600.000	-0.007	599.999	0.173	4.459	1772052890.597
1873	600.000	-0.026	600.002	0.114	2.533	1772052890.867
1874	600.000	0.005	600.000	0.204	5.610	1772052891.108
1875	600.000	0.025	599.999	0.141	4.413	1772052891.377
1876	600.000	0.012	600.002	0.120	3.550	1772052891.617
1877	600.000	0.015	599.996	0.091	0.550	1772052891.850
1878	600.000	-0.063	600.000	0.165	5.728	1772052892.119
1879	600.000	0.007	600.000	0.212	3.736	1772052892.348
1880	600.000	-0.027	600.001	0.082	0.477	1772052892.605
1881	600.000	-0.033	600.000	0.205	5.777	1772052892.886
1882	600.000	0.045	600.000	0.157	3.558	1772052893.186
1883	600.000	0.015	600.003	0.086	0.502	1772052893.420
1884	600.000	-0.021	599.998	0.202	5.701	1772052893.666
1885	600.000	-0.024	599.996	0.123	4.198	1772052893.921
1886	600.000	-0.027	599.999	0.090	2.488	1772052894.175
1887	600.000	-0.015	600.003	0.109	5.830	1772052894.415
1888	600.000	-0.020	600.000	0.141	5.334	1772052894.653
1889	600.000	0.010	599.996	0.153	3.355	1772052894.901
1890	600.000	-0.011	599.999	0.182	0.668	1772052895.155
1891	600.000	-0.023	600.000	0.156	5.814	1772052895.430
1892	600.000	0.014	599.998	0.170	3.193	1772052895.666
1893	600.000	-0.025	599.999	0.088	1.154	1772052895.947
1894	600.000	-0.014	599.997	0.222	5.855	1772052896.206
1895	600.000	-0.013	599.997	0.201	4.049	1772052896.496
1896	600.000	-0.017	600.002	0.095	1.328	1772052896.714
1897	600.000	0.003	600.000	0.176	5.544	1772052896.985
1898	600.000	-0.013	600.000	0.110	3.901	1772052897.240
1899	600.000	-0.022	600.001	0.096	2.116	1772052897.482
1900	600.000	-0.003	600.001	0.187	0.253	1772052897.736
1901	600.000	-0.033	600.003	0.143	5.255	1772052897.993
1902	600.000	0.012	599.998	0.108	3.110	1772052898.245
1903	600.000	-0.018	600.004	0.133	0.126	1772052898.466
1904	600.000	0.017	599.999	0.137	5.842	1772052898.751
1905	600.000	-0.040	600.003	0.195	3.405	1772052898.984
1906	600.000	0.043	600.000	0.146	1.090	1772052899.226
1907	600.000	0.016	600.002	0.207	0.066	1772052899.508
1908	600.000	-0.015	600.001	0.170	3.651	1772052899.810
1909	600.000	-0.015	600.001	0.068	1.643	1772052900.030
1910	600.000	-0.026	600.003	0.222	5.961	1772052900.312
1911	600.000	-0.038	600.002	0.137	4.379	1772052900.544
1912	600.000	0.044	600.000	0.092	2.761	1772052900.796
1913	600.000	-0.030	599.998	0.160	0.055	1772052901.050
1914	600.000	0.010	599.998	0.155	5.172	1772052901.278
1915	600.000	-0.019	600.001	0.175	3.496	1772052901.544
1916	600.000	0.024	600.003	0.255	0.365	1772052901.807
1917	600.000	0.036	599.999	0.221	5.425	1772052902.122
1918	600.000	-0.043	599.997	0.213	3.387	1772052902.372
1919	600.000	0.006	599.998	0.087	0.657	1772052902.615
1920	600.000	0.049	600.001	0.129	5.569	1772052902.846
1921	600.000	0.078	600.001	0.174	3.616	1772052903.098
1922	600.000	0.006	599.997	0.092	1.853	1772052903.346
1923	600.000	0.018	600.002	0.152	6.022	1772052903.623
1924	600.000	0.015	600.001	0.110	4.639	1772052903.926
1925	600.000	0.011	600.000	0.134	2.621	1772052904.185
1926	600.000	0.003	599.996	0.090	0.026	1772052904.398
1927	600.000	-0.013	600.001	0.126	4.372	1772052904.676
1928	600.000	0.037	600.000	0.121	2.906	1772052904.927
1929	600.000	0.047	600.000	0.113	0.461	1772052905.172
1930	600.000	-0.009	599.997	0.176	5.369	1772052905.438
1931	600.000	-0.008	600.002	0.141	3.497	1772052905.730
1932	600.000	-0.006	600.004	0.186	0.570	1772052905.963
1933	600.000	-0.004	600.001	0.112	5.676	1772052906.242
1934	600.000	-0.035	600.002	0.207	3.646	1772052906.506
1935	600.000	-0.002	599.999	0.094	1.446	1772052906.794
1936	600.000	0.044	600.000	0.220	5.275	1772052907.024
1937	600.000	-0.002	600.000	0.129	3.793	1772052907.311
1938	600.000	0.038	600.003	0.098	2.307	1772052907.544
1939	600.000	-0.006	600.000	0.145	5.664	1772052907.808
1940	600.000	-0.039	600.002	0.203	4.663	1772052908.037
1941	600.000	0.054	599.997	0.120	2.452	1772052908.304
1942	600.000	0.008	599.999	0.126	0.325	1772052908.547
1943	600.000	0.016	600.000	0.129	5.551	1772052908.778
1944	600.000	-0.062	599.998	0.152	3.782	1772052909.050
1945	600.000	0.011	599.999	0.124	0.842	1772052909.275
1946	600.000	-0.021	600.000	0.187	5.854	1772052909.542
1947	600.000	-0.072	600.001	0.102	3.272	1772052909.797
1948	600.000	-0.013	600.002	0.066	2.441	1772052910.026
1949	600.000	-0.001	600.002	0.170	6.209	1772052910.296
1950	600.000	-0.026	600.000	0.187	4.972	1772052910.531
1951	600.000	-0.024	600.004	0.225	3.016	1772052910.809
1952	600.000	0.004	600.000	0.142	6.097	1772052911.048
1953	600.000	0.012	599.999	0.162	5.232	1772052911.296
1954	600.000	-0.008	599.999	0.254	3.384	1772052911.544
1955	600.000	-0.014	600.001	0.183	1.300	1772052911.777
1956	600.000	0.045	600.000	0.162	5.843	1772052912.066
1957	600.000	0.009	600.000	0.132	3.903	1772052912.301
1958	600.000	-0.007	599.996	0.146	2.164	1772052912.557
1959	600.000	0.071	599.998	0.233	5.869	1772052912.819
1960	600.000	-0.012	600.000	0.105	4.890	1772052913.075
1961	600.000	0.002	600.001	0.156	2.604	1772052913.305
1962	600.000	-0.011	599.998	0.183	6.053	1772052913.550
1963	600.000	0.013	600.000	0.123	5.312	1772052913.819
1964	600.000	-0.055	599.998	0.171	3.638	1772052914.093
1965	600.000	0.004	599.998	0.068	0.860	1772052914.374
1966	600.000	-0.044	599.998	0.195	4.948	1772052914.638
1967	600.000	0.042	600.003	0.203	3.697	1772052914.870
1968	600.000	0.014	600.000	0.183	0.687	1772052915.144
1969	600.000	-0.007	599.999	0.225	5.573	1772052915.436
1970	600.000	-0.006	599.998	0.121	4.303	1772052915.676
1971	600.000	0.008	599.998	0.099	0.943	1772052915.930
1972	600.000	0.022	600.003	0.258	5.902	1772052916.178
1973	600.000	0.004	600.000	0.201	3.941	1772052916.435
1974	600.000	0.010	599.998	0.047	2.368	1772052916.688
1975	600.000	-0.007	599.999	0.175	6.237	1772052916.954
1976	600.000	0.044	600.003	0.110	4.563	1772052917.252
1977	600.000	0.023	600.002	0.176	2.555	1772052917.498
1978	600.000	-0.011	600.001	0.109	5.809	1772052917.774
1979	600.000	-0.021	600.001	0.088	4.384	1772052918.047
1980	600.000	0.008	599.998	0.206	3.208	1772052918.321
1981	600.000	0.010	600.001	0.122	0.541	1772052918.562
1982	600.000	0.022	599.998	0.144	5.595	1772052918.815
1983	600.000	0.005	600.000	0.081	3.419	1772052919.068
1984	600.000	0.027	600.001	0.151	0.441	1772052919.324
1985	600.000	-0.004	599.995	0.162	5.832	1772052919.561
1986	600.000	0.006	599.999	0.194	4.264	1772052919.793
1987	600.000	0.028	599.998	0.098	3.172	1772052920.061
1988	600.000	-0.006	600.003	0.211	6.276	1772052920.296
1989	600.000	0.043	599.998	0.104	5.687	1772052920.565
1990	600.000	0.010	600.000	0.189	2.919	1772052920.815
1991	600.000	-0.015	599.999	0.113	0.350	1772052921.064
1992	600.000	0.045	600.002	0.148	5.372	1772052921.325
1993	600.000	-0.009	600.001	0.209	3.773	1772052921.573
1994	600.000	-0.013	600.000	0.113	0.893	1772052921.820
1995	600.000	-0.003	599.999	0.142	5.881	1772052922.034
1996	600.000	0.032	599.999	0.117	4.417	1772052922.314
1997	600.000	-0.029	600.000	0.167	1.895	1772052922.557
1998	600.000	-0.021	599.998	0.172	0.163	1772052922.812
1999	600.000	0.019	599.999	0.163	4.820	1772052923.053
2000	600.000	0.011	600.004	0.185	3.082	1772052923.319
2001	600.000	0.013	599.999	0.142	0.355	1772052923.558
2002	600.000	0.024	600.003	0.195	5.609	1772052923.799
2003	600.000	-0.004	600.001	0.160	3.420	1772052924.075
2004	600.000	0.021	600.002	0.091	0.845	1772052924.325
2005	600.000	0.032	599.998	0.182	5.718	1772052924.627
2006	600.000	0.031	599.999	0.095	4.477	1772052924.852
2007	600.000	-0.001	599.994	0.100	1.840	1772052925.140
2008	600.000	0.008	600.001	0.266	6.111	1772052925.363
2009	600.000	0.008	599.999	0.132	4.299	1772052925.645
2010	600.000	-0.006	599.999	0.089	2.693	1772052925.885
2011	600.000	0.044	600.000	0.122	6.244	1772052926.126
2012	600.000	-0.020	600.002	0.133	5.083	1772052926.373
2013	600.000	-0.009	600.001	0.202	3.392	1772052926.591
2014	600.000	0.015	600.001	0.090	1.428	1772052926.878
2015	600.000	0.021	600.002	0.181	5.718	1772052927.120
2016	600.000	0.001	600.001	0.163	3.675	1772052927.391
2017	600.000	-0.011	599.999	0.086	1.574	1772052927.619
2018	600.000	-0.009	599.998	0.151	5.941	1772052927.851
2019	600.000	0.001	600.000	0.231	4.126	1772052928.138
2020	600.000	-0.014	599.999	0.155	2.504	1772052928.379
2021	600.000	-0.058	600.002	0.116	0.442	1772052928.635
2022	600.000	0.045	599.998	0.143	4.708	1772052928.853
2023	600.000	0.027	599.998	0.160	3.449	1772052929.126
2024	600.000	0.007	599.999	0.055	1.195	1772052929.390
2025	600.000	0.027	599.998	0.205	5.008	1772052929.696
2026	600.000	-0.014	600.005	0.112	3.712	1772052929.919
2027	600.000	0.040	600.000	0.145	0.671	1772052930.190
2028	600.000	0.006	599.999	0.224	5.922	1772052930.425
2029	600.000	-0.002	600.002	0.095	4.401	1772052930.685
2030	600.000	0.006	599.999	0.100	1.497	1772052930.938
2031	600.000	0.021	599.997	0.269	6.082	1772052931.176
2032	600.000	0.001	599.998	0.092	4.098	1772052931.436
2033	600.000	-0.031	599.999	0.164	3.000	1772052931.677
2034	600.000	-0.020	599.998	0.170	0.066	1772052931.942
2035	600.000	-0.019	600.000	0.135	4.698	1772052932.171
2036	600.000	-0.017	600.000	0.177	3.702	1772052932.442
2037	600.000	-0.010	600.001	0.105	0.928	1772052932.704
2038	600.000	-0.035	600.002	0.183	5.648	1772052932.945
2039	600.000	-0.012	600.000	0.131	3.618	1772052933.177
2040	600.000	-0.009	600.003	0.098	2.166	1772052933.431
2041	600.000	-0.004	600.000	0.225	0.084	1772052933.691
2042	600.000	-0.010	600.000	0.124	4.434	1772052933.930
2043	600.000	0.003	600.001	0.145	2.687	1772052934.199
2044	600.000	0.017	599.999	0.176	6.046	1772052934.483
2045	600.000	-0.007	600.003	0.089	3.746	1772052934.751
2046	600.000	0.042	599.998	0.061	2.968	1772052935.006
2047	600.000	-0.008	599.996	0.155	0.181	1772052935.265
2048	600.000	-0.007	600.000	0.137	5.098	1772052935.502
2049	600.000	0.014	600.000	0.136	3.571	1772052935.755
2050	600.000	0.015	600.000	0.206	0.311	1772052936.004
2051	600.000	0.018	599.996	0.116	5.413	1772052936.239
2052	600.000	0.032	600.001	0.223	3.821	1772052936.497
2053	600.000	0.017	600.001	0.066	2.276	1772052936.749
2054	600.000	0.001	599.997	0.257	0.097	1772052936.999
2055	600.000	0.006	599.998	0.077	5.295	1772052937.256
2056	600.000	0.003	599.997	0.081	2.909	1772052937.565
2057	600.000	0.018	600.001	0.167	6.160	1772052937.810
2058	600.000	0.038	600.001	0.166	3.840	1772052938.135
2059	600.000	-0.031	599.998	0.062	2.166	1772052938.433
2060	600.000	-0.012	600.003	0.198	5.989	1772052938.666
2061	600.000	-0.017	600.001	0.169	4.041	1772052938.936
2062	600.000	-0.007	600.003	0.124	2.759	1772052939.186
2063	600.000	0.023	600.002	0.184	0.068	1772052939.449
2064	600.000	-0.009	599.996	0.105	4.358	1772052939.708
2065	600.000	-0.003	600.003	0.168	2.664	1772052939.977
2066	600.000	-0.028	599.998	0.173	6.046	1772052940.259
2067	600.000	0.003	600.002	0.129	4.241	1772052940.525
2068	600.000	0.013	600.000	0.167	3.447	1772052940.758
2069	600.000	0.014	600.000	0.103	0.716	1772052941.008
2070	600.000	0.004	600.000	0.198	5.847	1772052941.266
2071	600.000	-0.006	600.000	0.140	3.818	1772052941.505
2072	600.000	-0.012	599.998	0.029	1.643	1772052941.762
2073	600.000	0.012	600.000	0.179	6.229	1772052941.998
2074	600.000	-0.015	599.996	0.133	4.193	1772052942.252
2075	600.000	0.012	600.003	0.074	2.056	1772052942.507
2076	600.000	0.019	600.001	0.231	0.280	1772052942.778
2077	600.000	0.038	599.999	0.104	5.599	1772052943.005
2078	600.000	-0.039	600.002	0.095	2.995	1772052943.273
2079	600.000	-0.029	599.999	0.077	0.035	1772052943.531
2080	600.000	0.050	600.002	0.132	4.888	1772052943.779
2081	600.000	0.031	599.997	0.244	3.277	1772052944.041
2082	600.000	0.010	599.997	0.212	0.433	1772052944.341
2083	600.000	0.022	599.999	0.237	5.754	1772052944.575
2084	600.000	0.056	599.997	0.187	3.747	1772052944.848
2085	600.000	0.013	599.999	0.103	0.819	1772052945.112
2086	600.000	0.028	600.001	0.199	5.981	1772052945.391
2087	600.000	-0.052	599.997	0.128	3.748	1772052945.626
2088	600.000	0.040	600.001	0.077	1.059	1772052945.877
2089	600.000	-0.040	599.998	0.173	5.847	1772052946.135
2090	600.000	-0.021	600.000	0.192	4.268	1772052946.405
2091	600.000	-0.006	599.998	0.137	3.473	1772052946.671
2092	600.000	0.017	600.000	0.193	6.208	1772052946.902
2093	600.000	0.044	599.999	0.124	4.713	1772052947.164
2094	600.000	-0.012	600.000	0.194	3.345	1772052947.403
2095	600.000	-0.009	599.999	0.185	0.480	1772052947.656
2096	600.000	0.015	600.001	0.143	5.689	1772052947.875
2097	600.000	0.025	600.002	0.189	3.421	1772052948.172
2098	600.000	-0.026	600.001	0.042	0.753	1772052948.415
2099	600.000	0.013	599.999	0.176	5.926	1772052948.664
2100	600.000	-0.016	600.003	0.168	3.911	1772052948.904
2101	600.000	0.013	599.997	0.106	2.989	1772052949.140
2102	600.000	0.018	600.002	0.131	0.047	1772052949.421
2103	600.000	0.002	600.002	0.145	4.124	1772052949.707
2104	600.000	-0.019	599.998	0.158	2.286	1772052949.968
2105	600.000	-0.014	600.004	0.199	0.107	1772052950.235
2106	600.000	0.001	599.998	0.150	5.596	1772052950.473
2107	600.000	0.030	600.000	0.154	3.266	1772052950.699
2108	600.000	0.051	600.000	0.232	0.424	1772052950.983
2109	600.000	-0.026	600.002	0.210	5.046	1772052951.207
2110	600.000	-0.012	599.998	0.130	3.200	1772052951.478
2111	600.000	-0.002	599.997	0.036	1.610	1772052951.700
2112	600.000	0.008	600.000	0.182	5.876	1772052951.967
2113	600.000	0.007	600.002	0.122	3.899	1772052952.229
2114	600.000	0.014	600.001	0.124	2.553	1772052952.475
2115	600.000	-0.041	600.001	0.194	6.024	1772052952.717
2116	600.000	0.010	600.002	0.107	5.085	1772052952.950
2117	600.000	0.018	600.002	0.209	3.152	1772052953.227
2118	600.000	-0.017	600.000	0.186	0.204	1772052953.542
2119	600.000	-0.005	599.999	0.085	4.227	1772052953.804
2120	600.000	-0.024	600.001	0.204	2.749	1772052954.053
2121	600.000	-0.014	600.001	0.190	0.016	1772052954.290
2122	600.000	0.001	600.000	0.178	5.519	1772052954.542
2123	600.000	0.007	599.999	0.136	3.830	1772052954.802
2124	600.000	-0.026	599.999	0.105	2.368	1772052955.027
2125	600.000	-0.006	600.004	0.147	5.551	1772052955.308
2126	600.000	0.001	599.998	0.161	3.626	1772052955.578
2127	600.000	0.002	600.002	0.153	0.852	1772052955.870
2128	600.000	0.019	600.004	0.180	5.633	1772052956.098
2129	600.000	-0.006	600.003	0.048	3.703	1772052956.364
2130	600.000	-0.051	600.001	0.077	1.772	1772052956.590
2131	600.000	0.016	600.002	0.156	5.993	1772052956.897
2132	600.000	-0.012	600.002	0.089	4.178	1772052957.179
2133	600.000	-0.004	599.999	0.064	3.206	1772052957.430
2134	600.000	0.041	599.997	0.086	6.098	1772052957.667
2135	600.000	0.022	599.999	0.148	4.357	1772052957.934
2136	600.000	-0.038	600.000	0.143	3.240	1772052958.186
2137	600.000	-0.040	600.000	0.120	0.048	1772052958.488
2138	600.000	0.010	600.002	0.064	4.898	1772052958.724
2139	600.000	-0.034	599.998	0.106	2.856	1772052958.994
2140	600.000	-0.014	599.999	0.104	0.506	1772052959.223
2141	600.000	-0.006	599.999	0.200	5.890	1772052959.488
2142	600.000	-0.025	600.001	0.117	3.427	1772052959.745
2143	600.000	0.018	599.999	0.092	1.056	1772052960.051
2144	600.000	-0.016	600.002	0.093	5.068	1772052960.281
2145	600.000	0.018	600.001	0.207	3.802	1772052960.568
2146	600.000	0.047	599.997	0.106	1.275	1772052960.789
2147	600.000	0.011	600.001	0.158	6.060	1772052961.063
2148	600.000	-0.006	599.997	0.110	3.631	1772052961.367
2149	600.000	-0.012	600.001	0.052	0.283	1772052961.605
2150	600.000	0.016	600.000	0.210	6.162	1772052961.845
2151	600.000	-0.003	599.999	0.038	4.203	1772052962.116
2152	600.000	-0.010	600.002	0.053	2.551	1772052962.370
2153	600.000	0.018	599.996	0.209	6.034	1772052962.680
2154	600.000	0.029	599.998	0.137	4.440	1772052962.914
2155	600.000	-0.002	600.000	0.179	3.185	1772052963.168
2156	600.000	-0.034	600.000	0.093	0.325	1772052963.390
2157	600.000	-0.002	600.003	0.150	5.068	1772052963.688
2158	600.000	-0.009	600.000	0.066	2.134	1772052963.919
2159	600.000	0.016	600.000	0.205	6.240	1772052964.180
2160	600.000	0.003	599.998	0.205	5.766	1772052964.415
2161	600.000	0.014	600.004	0.141	3.984	1772052964.677
2162	600.000	0.003	600.002	0.097	1.491	1772052964.923
2163	600.000	-0.007	600.002	0.195	6.095	1772052965.154
2164	600.000	-0.005	599.997	0.130	4.279	1772052965.412
2165	600.000	0.027	599.999	0.115	2.940	1772052965.668
2166	600.000	0.013	599.998	0.134	6.029	1772052965.950
2167	600.000	0.013	599.998	0.179	4.444	1772052966.253
2168	600.000	-0.032	600.002	0.126	1.844	1772052966.498
2169	600.000	0.012	600.000	0.231	0.220	1772052966.807
2170	600.000	0.051	599.997	0.148	4.517	1772052967.033
2171	600.000	-0.028	599.999	0.202	3.312	1772052967.310
2172	600.000	0.011	599.998	0.071	0.407	1772052967.564
2173	600.000	-0.025	600.004	0.131	5.220	1772052967.797
2174	600.000	0.023	599.997	0.097	3.709	1772052968.050
2175	600.000	0.009	599.999	0.040	0.785	1772052968.275
2176	600.000	-0.021	599.998	0.171	5.097	1772052968.566
2177	600.000	0.013	600.001	0.189	4.100	1772052968.859
2178	600.000	0.013	599.999	0.064	0.872	1772052969.100
2179	600.000	-0.022	600.000	0.131	5.403	1772052969.336
2180	600.000	0.004	600.000	0.107	4.298	1772052969.606
2181	600.000	-0.029	600.003	0.070	2.182	1772052969.851
2182	600.000	0.033	600.000	0.169	0.292	1772052970.108
2183	600.000	-0.023	599.998	0.179	5.362	1772052970.368
2184	600.000	-0.038	599.999	0.156	3.484	1772052970.614
2185	600.000	-0.026	599.999	0.095	1.078	1772052970.872
2186	600.000	-0.037	599.998	0.156	5.941	1772052971.115
2187	600.000	-0.040	600.000	0.198	3.562	1772052971.363
2188	600.000	0.040	600.003	0.090	1.910	1772052971.586
2189	600.000	0.017	600.000	0.127	5.632	1772052971.882
2190	600.000	0.003	599.998	0.046	5.241	1772052972.181
2191	600.000	0.022	600.003	0.123	1.149	1772052972.443
2192	600.000	-0.021	600.000	0.211	5.956	1772052972.746
2193	600.000	-0.021	600.001	0.135	3.907	1772052972.966
2194	600.000	-0.034	599.999	0.088	1.761	1772052973.227
2195	600.000	-0.014	600.002	0.158	5.999	1772052973.487
2196	600.000	0.034	600.001	0.060	5.030	1772052973.734
2197	600.000	0.004	599.999	0.243	3.055	1772052973.968
2198	600.000	0.035	600.007	0.085	5.840	1772052974.231
2199	600.000	0.008	600.000	0.111	5.366	1772052974.504
2200	600.000	0.014	600.004	0.186	3.500	1772052974.732
2201	600.000	0.013	599.998	0.154	0.505	1772052974.993
2202	600.000	-0.007	600.001	0.157	5.825	1772052975.227
2203	600.000	-0.009	600.004	0.191	3.643	1772052975.490
2204	600.000	-0.008	600.000	0.105	3.388	1772052975.746
2205	600.000	-0.001	600.002	0.194	3.628	1772052975.989
2206	600.000	-0.029	600.001	0.122	1.616	1772052976.247
2207	600.000	-0.017	599.997	0.177	0.010	1772052976.475
2208	600.000	0.020	600.001	0.107	5.795	1772052976.751
2209	600.000	-0.012	600.002	0.262	3.822	1772052976.983
2210	600.000	0.064	600.002	0.229	0.281	1772052977.247
2211	600.000	0.040	600.000	0.124	4.897	1772052977.479
2212	600.000	-0.010	600.002	0.191	3.360	1772052977.750
2213	600.000	-0.008	600.002	0.158	5.893	1772052978.037
2214	600.000	0.005	599.999	0.094	2.579	1772052978.281
2215	600.000	-0.004	600.001	0.126	0.618	1772052978.537
2216	600.000	-0.025	600.001	0.150	5.495	1772052978.809
2217	600.000	0.047	599.999	0.160	3.509	1772052979.052
2218	600.000	-0.024	600.001	0.114	1.802	1772052979.307
2219	600.000	0.036	600.001	0.175	5.743	1772052979.562
2220	600.000	-0.006	599.998	0.109	4.955	1772052979.793
2221	600.000	0.022	600.002	0.059	3.070	1772052980.066
2222	600.000	0.023	599.999	0.149	6.034	1772052980.365
2223	600.000	-0.050	600.001	0.147	4.393	1772052980.604
2224	600.000	0.007	600.001	0.101	3.341	1772052980.834
2225	600.000	-0.006	600.001	0.203	0.032	1772052981.105
2226	600.000	0.033	599.997	0.155	5.211	1772052981.365
2227	600.000	-0.003	599.999	0.180	2.981	1772052981.683
2228	600.000	0.023	599.997	0.178	0.146	1772052981.934
2229	600.000	-0.032	599.998	0.087	4.748	1772052982.199
2230	600.000	0.002	600.000	0.127	3.788	1772052982.436
2231	600.000	-0.016	600.002	0.172	0.778	1772052982.690
2232	600.000	0.013	599.999	0.148	5.590	1772052982.958
2233	600.000	0.037	600.001	0.182	4.160	1772052983.209
2234	600.000	-0.009	600.002	0.090	1.257	1772052983.512
2235	600.000	0.050	600.005	0.219	5.835	1772052983.787
2236	600.000	-0.022	600.001	0.123	3.230	1772052984.070
2237	600.000	-0.004	600.000	0.106	2.027	1772052984.301
2238	600.000	-0.033	600.001	0.198	5.991	1772052984.577
2239	600.000	0.015	600.000	0.108	3.767	1772052984.880
2240	600.000	0.032	599.999	0.093	1.310	1772052985.141
2241	600.000	0.032	599.999	0.167	5.787	1772052985.429
2242	600.000	0.048	599.998	0.181	3.905	1772052985.684
2243	600.000	0.028	599.998	0.098	2.181	1772052985.935
2244	600.000	0.009	599.999	0.132	0.002	1772052986.211
2245	600.000	0.024	599.997	0.158	4.871	1772052986.463
2246	600.000	0.018	600.003	0.070	2.255	1772052986.712
2247	600.000	-0.010	599.998	0.169	5.620	1772052986.934
2248	600.000	0.010	600.003	0.160	5.478	1772052987.225
2249	600.000	-0.013	599.999	0.146	3.016	1772052987.517
2250	600.000	0.022	600.000	0.176	0.281	1772052987.777
2251	600.000	0.019	599.999	0.140	5.052	1772052988.013
2252	600.000	-0.021	600.001	0.238	3.694	1772052988.258
2253	600.000	-0.005	599.999	0.200	0.896	1772052988.508
2254	600.000	0.016	600.002	0.147	5.391	1772052988.788
2255	600.000	0.019	599.999	0.179	3.655	1772052989.090
2256	600.000	-0.033	600.000	0.127	1.208	1772052989.322
2257	600.000	0.051	599.999	0.179	5.612	1772052989.554
2258	600.000	-0.007	600.002	0.221	4.117	1772052989.822
2259	600.000	0.005	600.002	0.102	2.432	1772052990.089
2260	600.000	-0.006	599.998	0.169	5.889	1772052990.400
2261	600.000	-0.059	600.003	0.074	4.319	1772052990.646
2262	600.000	-0.009	600.002	0.153	2.185	1772052990.882
2263	600.000	0.016	600.002	0.179	0.310	1772052991.117
2264	600.000	0.013	600.003	0.191	4.830	1772052991.394
2265	600.000	0.064	600.000	0.150	3.172	1772052991.626
2266	600.000	0.019	600.000	0.148	0.417	1772052991.910
2267	600.000	-0.026	599.999	0.186	5.665	1772052992.186
2268	600.000	0.023	600.002	0.190	3.023	1772052992.449
2269	600.000	0.016	600.000	0.160	0.803	1772052992.688
2270	600.000	0.027	599.999	0.171	5.825	1772052992.961
2271	600.000	0.012	599.999	0.066	4.038	1772052993.191
2272	600.000	0.044	599.998	0.173	0.430	1772052993.470
2273	600.000	0.021	600.001	0.192	5.060	1772052993.717
2274	600.000	0.000	600.003	0.165	4.201	1772052993.954
2275	600.000	-0.023	599.997	0.091	2.939	1772052994.192
2276	600.000	-0.000	599.999	0.066	0.016	1772052994.439
2277	600.000	0.014	599.998	0.195	5.976	1772052994.715
2278	600.000	0.014	600.001	0.111	3.577	1772052994.945
2279	600.000	-0.013	600.000	0.187	0.881	1772052995.209
2280	600.000	-0.025	599.999	0.146	5.048	1772052995.456
2281	600.000	0.039	599.997	0.151	4.036	1772052995.682
2282	600.000	0.013	600.001	0.132	1.803	1772052995.958
2283	600.000	0.005	599.999	0.178	5.834	1772052996.184
2284	600.000	0.027	600.002	0.098	4.518	1772052996.443
2285	600.000	-0.028	599.997	0.137	3.084	1772052996.703
2286	600.000	-0.009	599.998	0.128	6.118	1772052996.955
2287	600.000	-0.026	600.002	0.110	4.907	1772052997.213
2288	600.000	0.041	599.999	0.154	3.607	1772052997.460
2289	600.000	0.012	599.998	0.081	0.302	1772052997.709
2290	600.000	0.001	599.998	0.095	5.470	1772052997.946
2291	600.000	-0.002	600.002	0.137	3.557	1772052998.209
2292	600.000	-0.001	600.000	0.042	2.670	1772052998.419
2293	600.000	0.002	599.997	0.132	5.510	1772052998.720
2294	600.000	-0.004	600.001	0.086	4.273	1772052998.963
2295	600.000	0.017	599.999	0.087	2.166	1772052999.208
2296	600.000	0.015	600.003	0.223	0.018	1772052999.452
2297	600.000	0.044	600.002	0.139	5.144	1772052999.680
2298	600.000	-0.009	600.000	0.123	3.274	1772052999.956
2299	600.000	-0.021	599.999	0.097	0.237	1772053000.195
2300	600.000	0.028	600.001	0.193	5.743	1772053000.466
2301	600.000	0.002	600.001	0.136	3.558	1772053000.743
2302	600.000	0.009	600.001	0.164	0.922	1772053001.009
2303	600.000	-0.001	600.002	0.138	0.158	1772053001.250
2304	600.000	-0.023	600.002	0.152	3.794	1772053001.523
2305	600.000	0.023	600.000	0.108	1.348	1772053001.823
2306	600.000	-0.009	600.000	0.150	6.066	1772053002.061
2307	600.000	-0.011	600.000	0.207	4.130	1772053002.338
2308	600.000	0.021	600.000	0.161	1.260	1772053002.648
2309	600.000	0.024	600.002	0.211	5.864	1772053002.904
2310	600.000	-0.043	599.999	0.144	4.160	1772053003.137
2311	600.000	-0.005	600.000	0.119	2.677	1772053003.368
2312	600.000	0.005	599.999	0.191	5.872	1772053003.631
2313	600.000	0.006	600.003	0.120	5.316	1772053003.875
2314	600.000	0.079	600.000	0.192	3.134	1772053004.166
2315	600.000	-0.050	600.001	0.203	0.017	1772053004.456
2316	600.000	-0.002	599.999	0.185	4.667	1772053004.697
2317	600.000	0.030	600.003	0.231	3.166	1772053004.919
2318	600.000	0.014	600.000	0.155	0.335	1772053005.189
2319	600.000	-0.018	599.996	0.217	5.684	1772053005.456
2320	600.000	-0.008	600.002	0.125	3.290	1772053005.772
2321	600.000	0.036	600.001	0.165	0.500	1772053006.007
2322	600.000	-0.053	599.998	0.193	6.159	1772053006.275
2323	600.000	-0.004	600.000	0.164	4.377	1772053006.497
2324	600.000	0.024	600.000	0.150	2.929	1772053006.777
2325	600.000	0.013	600.000	0.231	6.105	1772053007.001
2326	600.000	0.027	599.997	0.163	4.635	1772053007.274
2327	600.000	-0.002	599.996	0.130	3.330	1772053007.532
2328	600.000	-0.015	600.001	0.190	6.223	1772053007.821
2329	600.000	0.041	600.002	0.177	4.805	1772053008.074
2330	600.000	0.024	600.000	0.221	3.251	1772053008.324
2331	600.000	-0.038	599.998	0.124	0.363	1772053008.579
2332	600.000	0.026	599.998	0.128	5.234	1772053008.830
2333	600.000	0.002	600.001	0.201	2.999	1772053009.082
2334	600.000	0.023	600.002	0.077	1.183	1772053009.306
2335	600.000	0.003	600.000	0.237	6.052	1772053009.585
2336	600.000	0.015	599.999	0.107	3.988	1772053009.801
2337	600.000	-0.020	600.001	0.194	1.537	1772053010.070
2338	600.000	-0.044	599.998	0.198	6.176	1772053010.353
2339	600.000	-0.000	599.999	0.124	4.398	1772053010.636
2340	600.000	-0.002	599.997	0.100	2.069	1772053010.869
2341	600.000	-0.014	600.000	0.086	6.184	1772053011.142
2342	600.000	-0.000	600.003	0.128	4.565	1772053011.395
2343	600.000	-0.012	599.997	0.104	3.039	1772053011.650
2344	600.000	-0.011	600.002	0.148	6.144	1772053011.906
2345	600.000	-0.004	600.001	0.168	5.583	1772053012.139
2346	600.000	-0.006	600.002	0.203	3.320	1772053012.397
2347	600.000	-0.000	599.998	0.112	0.719	1772053012.671
2348	600.000	-0.002	599.999	0.130	4.973	1772053012.960
2349	600.000	-0.023	600.003	0.175	3.839	1772053013.208
2350	600.000	0.010	600.000	0.059	2.274	1772053013.462
2351	600.000	-0.010	600.001	0.135	5.705	1772053013.687
2352	600.000	-0.026	599.996	0.069	3.848	1772053013.954
2353	600.000	0.010	600.000	0.100	2.110	1772053014.194
2354	600.000	-0.010	600.002	0.198	6.186	1772053014.439
2355	600.000	0.016	599.999	0.145	4.846	1772053014.694
2356	600.000	-0.002	599.999	0.093	2.474	1772053014.952
2357	600.000	-0.048	600.001	0.213	0.131	1772053015.202
2358	600.000	-0.014	600.001	0.200	5.006	1772053015.449
2359	600.000	0.014	600.004	0.224	3.781	1772053015.677
2360	600.000	0.010	599.998	0.100	1.180	1772053015.929
2361	600.000	0.025	599.999	0.148	5.943	1772053016.202
2362	600.000	0.006	600.000	0.118	3.825	1772053016.457
2363	600.000	0.004	599.999	0.066	2.347	1772053016.720
2364	600.000	0.010	600.002	0.153	5.989	1772053016.961
2365	600.000	0.009	600.000	0.119	4.604	1772053017.214
2366	600.000	-0.026	600.004	0.134	3.113	1772053017.466
2367	600.000	-0.015	599.999	0.134	0.507	1772053017.692
2368	600.000	-0.002	600.001	0.140	5.891	1772053017.945
2369	600.000	0.002	599.999	0.136	3.192	1772053018.201
2370	600.000	0.021	600.001	0.095	0.787	1772053018.478
2371	600.000	0.023	599.999	0.114	5.254	1772053018.763
2372	600.000	-0.000	600.002	0.202	3.444	1772053019.017
2373	600.000	0.009	599.998	0.166	0.368	1772053019.234
2374	600.000	0.008	599.998	0.165	5.831	1772053019.528
2375	600.000	0.015	600.000	0.120	3.947	1772053019.785
2376	600.000	-0.032	599.997	0.083	2.146	1772053020.084
2377	600.000	-0.012	600.002	0.100	5.529	1772053020.315
2378	600.000	0.007	600.001	0.170	4.467	1772053020.581
2379	600.000	-0.026	600.000	0.179	3.479	1772053020.826
2380	600.000	-0.029	600.000	0.145	5.873	1772053021.087
2381	600.000	0.009	599.998	0.159	4.866	1772053021.336
2382	600.000	0.013	600.001	0.069	3.648	1772053021.575
2383	600.000	-0.047	600.000	0.061	0.192	1772053021.815
2384	600.000	-0.021	600.003	0.139	4.955	1772053022.075
2385	600.000	-0.009	599.997	0.265	3.638	1772053022.336
2386	600.000	0.011	599.999	0.153	1.459	1772053022.557
2387	600.000	-0.013	599.998	0.231	5.545	1772053022.829
2388	600.000	0.002	600.003	0.174	3.861	1772053023.079
2389	600.000	-0.018	599.997	0.143	2.281	1772053023.332
2390	600.000	-0.003	600.000	0.170	5.952	1772053023.579
2391	600.000	-0.009	599.996	0.122	4.213	1772053023.814
2392	600.000	0.020	600.001	0.133	2.948	1772053024.090
2393	600.000	0.024	600.001	0.241	6.114	1772053024.310
2394	600.000	-0.003	600.002	0.140	4.714	1772053024.580
2395	600.000	-0.003	600.003	0.213	3.637	1772053024.824
2396	600.000	0.024	600.000	0.110	0.747	1772053025.083
2397	600.000	-0.014	600.002	0.238	5.343	1772053025.349
2398	600.000	-0.019	600.000	0.109	4.169	1772053025.645
2399	600.000	-0.008	599.999	0.119	0.612	1772053025.860
2400	600.000	0.001	600.000	0.195	5.230	1772053026.133
2401	600.000	0.009	599.999	0.171	4.228	1772053026.389
2402	600.000	0.016	600.002	0.099	2.021	1772053026.639
2403	600.000	0.015	600.001	0.242	5.983	1772053026.901
2404	600.000	0.011	599.998	0.144	3.814	1772053027.184
2405	600.000	0.010	599.995	0.142	2.949	1772053027.447
2406	600.000	0.028	599.999	0.249	5.863	1772053027.719
2407	600.000	0.000	599.998	0.101	4.391	1772053027.967
2408	600.000	-0.028	599.999	0.150	3.124	1772053028.226
2409	600.000	-0.003	600.000	0.137	5.569	1772053028.510
2410	600.000	-0.005	600.001	0.164	4.467	1772053028.763
2411	600.000	-0.006	600.001	0.229	3.369	1772053029.008
2412	600.000	0.017	599.997	0.187	0.073	1772053029.279
2413	600.000	-0.007	600.001	0.101	5.554	1772053029.521
2414	600.000	-0.006	599.998	0.173	3.731	1772053029.739
2415	600.000	0.009	599.998	0.124	0.998	1772053030.016
2416	600.000	0.021	600.000	0.157	5.462	1772053030.248
2417	600.000	-0.010	600.001	0.131	3.956	1772053030.522
2418	600.000	-0.012	600.001	0.096	1.584	1772053030.766
2419	600.000	0.014	600.000	0.203	5.875	1772053031.004
2420	600.000	0.024	600.002	0.070	5.106	1772053031.264
2421	600.000	-0.019	599.998	0.235	3.258	1772053031.505
2422	600.000	0.016	600.001	0.110	0.728	1772053031.751
2423	600.000	0.013	600.004	0.141	5.478	1772053032.007
2424	600.000	0.001	600.000	0.175	3.384	1772053032.276
2425	600.000	0.012	600.000	0.127	1.260	1772053032.524
2426	600.000	0.007	599.999	0.191	5.586	1772053032.780
2427	600.000	0.031	600.002	0.083	3.510	1772053033.040
2428	600.000	-0.018	600.000	0.073	1.382	1772053033.329
2429	600.000	0.026	599.998	0.213	5.718	1772053033.580
2430	600.000	0.033	599.999	0.170	4.376	1772053033.840
2431	600.000	-0.023	600.000	0.208	2.486	1772053034.074
2432	600.000	0.018	600.000	0.161	6.225	1772053034.345
2433	600.000	0.039	600.003	0.100	4.370	1772053034.626
2434	600.000	-0.000	600.000	0.199	3.391	1772053034.879
2435	600.000	-0.020	599.999	0.152	5.501	1772053035.151
2436	600.000	-0.001	599.998	0.123	5.689	1772053035.405
2437	600.000	-0.012	600.002	0.136	2.651	1772053035.664
2438	600.000	0.011	599.998	0.335	0.426	1772053035.907
2439	600.000	-0.006	600.002	0.143	5.733	1772053036.150
2440	600.000	0.025	599.998	0.154	3.628	1772053036.403
2441	600.000	-0.011	600.000	0.190	0.986	1772053036.648
2442	600.000	0.002	600.002	0.190	5.366	1772053036.900
2443	600.000	-0.003	600.001	0.068	3.957	1772053037.170
2444	600.000	-0.031	599.998	0.081	1.792	1772053037.425
2445	600.000	-0.027	599.998	0.135	5.467	1772053037.717
2446	600.000	-0.052	600.003	0.095	4.028	1772053037.965
2447	600.000	0.004	600.001	0.122	1.361	1772053038.270
2448	600.000	-0.001	600.001	0.168	5.523	1772053038.527
2449	600.000	-0.019	600.002	0.156	4.689	1772053038.789
2450	600.000	-0.032	599.998	0.186	3.091	1772053039.024
2451	600.000	0.024	599.999	0.138	5.494	1772053039.276
2452	600.000	-0.005	600.002	0.114	5.496	1772053039.526
2453	600.000	-0.014	599.997	0.085	2.041	1772053039.788
2454	600.000	0.018	600.000	0.227	0.489	1772053040.032
2455	600.000	-0.010	600.002	0.173	5.671	1772053040.283
2456	600.000	0.009	600.001	0.235	3.873	1772053040.526
2457	600.000	0.030	599.999	0.078	2.163	1772053040.812
2458	600.000	-0.039	599.999	0.110	5.355	1772053041.091
2459	600.000	-0.010	600.000	0.228	3.665	1772053041.355
2460	600.000	0.025	600.005	0.049	2.969	1772053041.597
2461	600.000	-0.026	599.999	0.204	5.845	1772053041.872
2462	600.000	-0.001	600.001	0.195	4.322	1772053042.129
2463	600.000	-0.005	599.997	0.077	3.212	1772053042.398
2464	600.000	0.003	599.999	0.247	5.499	1772053042.642
2465	600.000	-0.002	600.000	0.084	4.115	1772053042.918
2466	600.000	-0.007	599.998	0.139	3.140	1772053043.227
2467	600.000	-0.020	600.004	0.183	0.125	1772053043.464
2468	600.000	0.003	599.997	0.075	5.318	1772053043.761
2469	600.000	-0.024	599.998	0.099	2.167	1772053044.038
2470	600.000	-0.027	600.000	0.218	6.145	1772053044.323
2471	600.000	0.006	599.999	0.130	4.296	1772053044.611
2472	600.000	0.035	600.002	0.151	2.542	1772053044.874
2473	600.000	-0.020	599.996	0.178	5.822	1772053045.175
2474	600.000	0.002	599.999	0.154	4.257	1772053045.406
2475	600.000	0.024	600.000	0.074	2.644	1772053045.669
2476	600.000	-0.003	600.000	0.126	5.299	1772053045.925
2477	600.000	-0.028	600.002	0.136	4.694	1772053046.155
2478	600.000	0.006	600.001	0.025	4.435	1772053046.404
2479	600.000	0.007	599.998	0.071	6.248	1772053046.665
2480	600.000	0.015	599.999	0.118	5.037	1772053046.926
2481	600.000	-0.018	599.996	0.187	3.883	1772053047.156
2482	600.000	-0.013	600.002	0.088	1.071	1772053047.418
2483	600.000	0.008	600.002	0.215	5.598	1772053047.668
2484	600.000	0.025	599.997	0.205	3.862	1772053047.931
2485	600.000	-0.043	599.999	0.110	1.594	1772053048.171
2486	600.000	-0.014	599.999	0.182	5.894	1772053048.402
2487	600.000	-0.020	599.999	0.147	5.774	1772053048.680
2488	600.000	0.012	599.999	0.145	2.799	1772053048.904
2489	600.000	-0.004	600.000	0.218	0.165	1772053049.171
2490	600.000	0.012	600.004	0.150	5.171	1772053049.430
2491	600.000	-0.028	599.999	0.162	3.860	1772053049.667
2492	600.000	0.014	599.999	0.130	0.697	1772053049.918
2493	600.000	-0.021	599.999	0.167	5.722	1772053050.188
2494	600.000	-0.019	599.998	0.087	3.938	1772053050.437
2495	600.000	0.007	600.001	0.087	1.448	1772053050.653
2496	600.000	-0.019	599.998	0.159	5.716	1772053050.928
2497	600.000	-0.025	599.999	0.164	4.567	1772053051.152
2498	600.000	-0.020	600.002	0.107	3.498	1772053051.424
2499	600.000	-0.011	600.000	0.147	5.689	1772053051.672
2500	600.000	0.017	599.998	0.107	5.574	1772053051.925
2501	600.000	0.016	599.996	0.133	3.702	1772053052.181
2502	600.000	-0.017	599.998	0.222	0.487	1772053052.440
2503	600.000	-0.012	599.998	0.174	5.244	1772053052.727
2504	600.000	-0.012	600.002	0.118	3.825	1772053052.987
2505	600.000	-0.021	600.002	0.099	0.928	1772053053.219
2506	600.000	-0.009	600.002	0.086	5.458	1772053053.513
2507	600.000	0.012	599.997	0.127	3.320	1772053053.744
2508	600.000	-0.006	600.000	0.082	1.432	1772053054.023
2509	600.000	0.007	600.001	0.093	5.601	1772053054.311
2510	600.000	-0.001	600.000	0.108	2.604	1772053054.576
2511	600.000	0.018	599.999	0.071	2.009	1772053054.827
2512	600.000	0.003	599.999	0.141	0.459	1772053055.124
2513	600.000	0.013	600.002	0.114	4.696	1772053055.361
2514	600.000	-0.017	600.000	0.185	3.798	1772053055.618
2515	600.000	-0.005	599.999	0.161	6.181	1772053055.872
2516	600.000	0.002	600.000	0.162	4.520	1772053056.120
2517	600.000	-0.001	600.003	0.160	3.169	1772053056.371
2518	600.000	-0.013	600.003	0.158	6.152	1772053056.609
2519	600.000	-0.010	599.999	0.127	5.618	1772053056.861
2520	600.000	0.032	599.999	0.090	3.087	1772053057.109
2521	600.000	0.016	600.003	0.097	0.102	1772053057.393
2522	600.000	-0.009	600.001	0.177	5.521	1772053057.622
2523	600.000	0.010	600.000	0.156	3.893	1772053057.867
2524	600.000	0.003	600.000	0.100	1.621	1772053058.117
2525	600.000	-0.011	600.003	0.077	5.225	1772053058.385
2526	600.000	-0.019	600.000	0.200	3.990	1772053058.635
2527	600.000	-0.000	599.998	0.137	3.504	1772053058.895
2528	600.000	-0.002	599.998	0.160	6.211	1772053059.169
2529	600.000	0.019	599.994	0.153	4.716	1772053059.440
2530	600.000	-0.004	599.999	0.137	3.963	1772053059.687
2531	600.000	0.012	599.997	0.099	0.959	1772053059.956
2532	600.000	-0.009	600.001	0.123	4.974	1772053060.192
2533	600.000	0.022	599.996	0.094	3.644	1772053060.412
2534	600.000	-0.009	600.000	0.063	0.972	1772053060.688
2535	600.000	-0.003	599.999	0.150	6.030	1772053060.920
2536	600.000	-0.042	599.999	0.080	4.133	1772053061.183
2537	600.000	-0.030	600.000	0.152	2.886	1772053061.438
2538	600.000	0.002	600.000	0.197	0.092	1772053061.691
2539	600.000	0.007	599.999	0.092	4.433	1772053061.924
2540	600.000	-0.021	599.998	0.215	3.706	1772053062.192
2541	600.000	-0.026	600.002	0.188	0.693	1772053062.430
2542	600.000	0.029	599.999	0.168	5.069	1772053062.660
2543	600.000	0.008	599.998	0.085	4.480	1772053062.939
2544	600.000	0.029	600.002	0.137	1.545	1772053063.168
2545	600.000	-0.003	600.001	0.205	6.209	1772053063.458
2546	600.000	-0.011	600.000	0.157	3.974	1772053063.738
2547	600.000	0.030	600.002	0.112	1.168	1772053063.987
2548	600.000	0.032	599.998	0.225	5.838	1772053064.235
2549	600.000	0.001	600.000	0.120	4.845	1772053064.493
2550	600.000	0.002	600.000	0.051	1.532	1772053064.744
2551	600.000	-0.005	600.000	0.111	6.271	1772053065.008
2552	600.000	0.019	599.999	0.125	5.083	1772053065.267
2553	600.000	0.023	599.996	0.193	3.292	1772053065.500
2554	600.000	-0.031	599.997	0.129	0.406	1772053065.761
2555	600.000	0.035	600.001	0.183	5.514	1772053065.994
2556	600.000	0.016	600.002	0.112	4.373	1772053066.239
2557	600.000	-0.008	599.997	0.056	1.514	1772053066.488
2558	600.000	0.002	600.002	0.136	5.669	1772053066.784
2559	600.000	0.036	600.004	0.176	3.858	1772053067.086
2560	600.000	0.002	600.001	0.099	0.988	1772053067.366
2561	600.000	0.018	600.004	0.188	5.484	1772053067.640
2562	600.000	0.005	599.999	0.143	3.546	1772053067.854
2563	600.000	-0.016	600.000	0.097	2.204	1772053068.129
2564	600.000	-0.001	600.002	0.196	6.217	1772053068.368
2565	600.000	0.021	600.001	0.054	5.077	1772053068.618
2566	600.000	-0.025	600.001	0.144	2.879	1772053068.871
2567	600.000	0.015	600.000	0.163	0.758	1772053069.136
2568	600.000	0.021	599.999	0.102	5.046	1772053069.413
2569	600.000	0.011	600.001	0.097	3.045	1772053069.710
2570	600.000	-0.039	599.998	0.196	0.236	1772053069.972
2571	600.000	0.036	599.999	0.132	5.546	1772053070.268
2572	600.000	0.037	599.997	0.108	3.482	1772053070.505
2573	600.000	0.013	600.002	0.119	6.227	1772053070.769
2574	600.000	-0.023	599.998	0.151	5.278	1772053071.013
2575	600.000	-0.003	599.998	0.168	3.830	1772053071.260
2576	600.000	-0.015	600.001	0.172	0.884	1772053071.512
2577	600.000	0.004	600.001	0.201	5.516	1772053071.750
2578	600.000	0.021	599.998	0.100	3.665	1772053072.002
2579	600.000	-0.017	600.000	0.109	2.793	1772053072.242
2580	600.000	-0.011	599.999	0.172	5.811	1772053072.523
2581	600.000	-0.025	599.999	0.101	5.273	1772053072.743
2582	600.000	-0.062	600.002	0.069	3.308	1772053073.043
2583	600.000	-0.018	599.996	0.183	0.055	1772053073.342
2584	600.000	0.026	599.998	0.137	4.925	1772053073.602
2585	600.000	-0.025	600.002	0.070	2.652	1772053073.914
2586	600.000	0.006	600.000	0.193	6.066	1772053074.207
2587	600.000	-0.003	600.003	0.103	4.873	1772053074.469
2588	600.000	0.026	600.000	0.043	1.687	1772053074.690
2589	600.000	-0.001	599.998	0.224	0.316	1772053074.955
2590	600.000	-0.009	599.997	0.206	4.765	1772053075.188
2591	600.000	0.002	600.000	0.227	3.596	1772053075.453
2592	600.000	-0.026	600.000	0.158	0.831	1772053075.701
2593	600.000	0.007	600.001	0.200	5.613	1772053075.972
2594	600.000	-0.021	599.997	0.179	3.567	1772053076.258
2595	600.000	0.027	599.998	0.180	1.332	1772053076.519
2596	600.000	-0.015	600.002	0.177	5.550	1772053076.735
2597	600.000	-0.011	599.998	0.199	4.057	1772053077.021
2598	600.000	-0.005	599.997	0.104	1.716	1772053077.266
2599	600.000	0.010	599.999	0.144	5.949	1772053077.507
2600	600.000	0.049	600.002	0.096	4.953	1772053077.759
2601	600.000	-0.033	600.001	0.122	3.434	1772053077.989
2602	600.000	-0.002	599.999	0.154	0.182	1772053078.271
2603	600.000	-0.022	599.999	0.187	5.810	1772053078.506
2604	600.000	-0.003	600.001	0.148	3.444	1772053078.760
2605	600.000	0.007	599.997	0.159	0.924	1772053079.011
2606	600.000	0.032	600.001	0.208	5.956	1772053079.278
2607	600.000	-0.009	600.001	0.183	3.953	1772053079.532
2608	600.000	0.019	600.001	0.237	1.798	1772053079.779
2609	600.000	-0.009	599.998	0.137	5.737	1772053080.025
2610	600.000	0.011	600.000	0.164	4.777	1772053080.259
2611	600.000	0.017	600.002	0.130	4.065	1772053080.516
2612	600.000	-0.019	600.002	0.100	1.763	1772053080.753
2613	600.000	0.001	599.997	0.177	0.024	1772053081.013
2614	600.000	0.005	600.000	0.158	5.292	1772053081.258
2615	600.000	-0.027	599.998	0.194	3.506	1772053081.535
2616	600.000	-0.008	600.001	0.216	6.176	1772053081.807
2617	600.000	0.015	599.999	0.108	5.948	1772053082.088
2618	600.000	0.024	600.002	0.207	3.670	1772053082.322
2619	600.000	-0.028	599.999	0.141	1.319	1772053082.590
2620	600.000	-0.016	599.998	0.176	5.466	1772053082.820
2621	600.000	-0.016	599.999	0.123	3.040	1772053083.076
2622	600.000	0.027	600.003	0.251	6.179	1772053083.319
2623	600.000	0.010	600.000	0.157	4.540	1772053083.564
2624	600.000	0.015	599.996	0.154	4.112	1772053083.833
2625	600.000	0.005	600.000	0.197	0.625	1772053084.083
2626	600.000	-0.004	600.002	0.136	5.885	1772053084.358
2627	600.000	-0.029	600.001	0.025	3.133	1772053084.647
2628	600.000	0.007	600.002	0.077	0.185	1772053084.897
2629	600.000	0.001	599.998	0.259	5.167	1772053085.143
2630	600.000	0.009	600.002	0.209	3.738	1772053085.391
2631	600.000	0.009	599.998	0.095	2.849	1772053085.639
2632	600.000	0.000	600.003	0.104	5.571	1772053085.897
2633	600.000	-0.010	600.001	0.117	3.530	1772053086.155
2634	600.000	-0.007	600.003	0.108	2.906	1772053086.458
2635	600.000	-0.014	600.001	0.145	5.601	1772053086.704
2636	600.000	-0.011	600.004	0.086	4.189	1772053086.959
2637	600.000	-0.003	599.996	0.149	3.020	1772053087.211
2638	600.000	-0.029	600.001	0.171	0.231	1772053087.443
2639	600.000	0.021	599.998	0.156	4.871	1772053087.710
2640	600.000	-0.021	600.000	0.153	3.640	1772053087.949
2641	600.000	-0.004	599.999	0.085	0.957	1772053088.199
2642	600.000	0.012	599.999	0.178	5.823	1772053088.431
2643	600.000	-0.034	599.999	0.188	3.566	1772053088.702
2644	600.000	0.019	600.000	0.211	1.101	1772053088.956
2645	600.000	0.007	599.999	0.176	6.052	1772053089.203
2646	600.000	0.018	599.999	0.102	4.574	1772053089.455
2647	600.000	-0.004	600.002	0.122	3.557	1772053089.711
2648	600.000	0.022	600.002	0.170	6.114	1772053089.967
2649	600.000	-0.006	600.004	0.159	4.407	1772053090.209
2650	600.000	-0.005	600.001	0.087	3.106	1772053090.486
2651	600.000	0.008	600.000	0.141	5.830	1772053090.783
2652	600.000	0.007	600.001	0.103	5.184	1772053091.039
2653	600.000	0.010	599.999	0.139	3.738	1772053091.291
2654	600.000	0.018	600.002	0.122	0.896	1772053091.529
2655	600.000	-0.031	599.997	0.106	4.700	1772053091.760
2656	600.000	-0.014	600.000	0.085	3.744	1772053092.029
2657	600.000	0.006	599.998	0.084	1.499	1772053092.286
2658	600.000	0.014	600.000	0.103	5.668	1772053092.597
2659	600.000	0.003	599.996	0.040	3.358	1772053092.829
2660	600.000	-0.063	599.999	0.079	0.991	1772053093.098
2661	600.000	0.027	600.001	0.172	5.483	1772053093.328
2662	600.000	0.042	599.999	0.062	4.925	1772053093.599
2663	600.000	0.021	599.998	0.072	1.081	1772053093.857
2664	600.000	-0.009	600.003	0.205	6.030	1772053094.101
2665	600.000	0.001	599.998	0.108	4.743	1772053094.346
2666	600.000	0.001	599.998	0.123	3.424	1772053094.592
2667	600.000	0.011	599.998	0.089	0.571	1772053094.851
2668	600.000	0.021	600.002	0.147	5.474	1772053095.109
2669	600.000	0.016	600.000	0.154	3.671	1772053095.407
2670	600.000	0.003	599.997	0.180	0.426	1772053095.643
2671	600.000	-0.014	599.999	0.139	5.661	1772053095.887
2672	600.000	-0.009	599.997	0.116	4.464	1772053096.144
2673	600.000	0.003	599.999	0.096	1.991	1772053096.398
2674	600.000	0.016	600.000	0.149	6.255	1772053096.659
2675	600.000	-0.004	599.998	0.209	5.059	1772053096.915
2676	600.000	-0.024	600.000	0.121	3.473	1772053097.168
2677	600.000	0.009	600.003	0.135	0.267	1772053097.476
2678	600.000	0.030	600.000	0.072	4.895	1772053097.775
2679	600.000	-0.039	600.000	0.064	2.594	1772053098.020
2680	600.000	-0.021	600.003	0.193	0.183	1772053098.294
2681	600.000	0.025	599.999	0.191	5.335	1772053098.541
2682	600.000	0.016	600.001	0.212	3.562	1772053098.771
2683	600.000	0.016	599.999	0.090	0.823	1772053099.055
2684	600.000	-0.009	600.000	0.161	5.358	1772053099.360
2685	600.000	-0.007	599.998	0.105	3.792	1772053099.639
2686	600.000	-0.001	599.998	0.089	1.197	1772053099.907
2687	600.000	0.000	600.002	0.178	5.435	1772053100.168
2688	600.000	0.025	600.000	0.176	3.839	1772053100.412
2689	600.000	-0.006	600.005	0.068	0.838	1772053100.670
2690	600.000	-0.029	600.002	0.186	5.774	1772053100.970
2691	600.000	0.015	600.003	0.086	3.763	1772053101.194
2692	600.000	-0.012	600.001	0.088	1.197	1772053101.488
2693	600.000	-0.025	600.000	0.155	5.225	1772053101.790
2694	600.000	0.024	600.000	0.107	4.057	1772053102.038
2695	600.000	0.038	600.001	0.092	1.294	1772053102.260
2696	600.000	0.005	600.000	0.191	6.130	1772053102.539
2697	600.000	0.016	600.001	0.133	4.703	1772053102.774
2698	600.000	0.011	599.998	0.198	3.450	1772053103.040
2699	600.000	-0.033	599.999	0.152	0.446	1772053103.294
2700	600.000	-0.027	599.999	0.114	4.988	1772053103.609
2701	600.000	-0.014	599.999	0.111	2.718	1772053103.901
2702	600.000	0.001	600.001	0.115	0.532	1772053104.156
2703	600.000	-0.004	599.998	0.104	6.035	1772053104.396
2704	600.000	0.006	599.998	0.172	4.214	1772053104.655
2705	600.000	-0.029	599.998	0.053	0.942	1772053104.920
2706	600.000	-0.005	599.998	0.181	5.893	1772053105.170
2707	600.000	-0.025	600.001	0.231	3.631	1772053105.413
2708	600.000	0.015	599.999	0.070	1.249	1772053105.668
2709	600.000	0.025	600.000	0.193	5.886	1772053105.918
2710	600.000	-0.041	600.000	0.122	3.864	1772053106.166
2711	600.000	0.009	600.001	0.160	0.893	1772053106.411
2712	600.000	0.006	599.997	0.204	5.982	1772053106.668
2713	600.000	-0.008	600.004	0.092	4.260	1772053106.912
2714	600.000	-0.024	599.997	0.264	3.430	1772053107.137
2715	600.000	-0.000	599.997	0.123	0.507	1772053107.415
2716	600.000	0.041	600.003	0.138	5.369	1772053107.673
2717	600.000	-0.014	599.998	0.171	3.656	1772053107.916
2718	600.000	0.039	599.998	0.032	2.647	1772053108.157
2719	600.000	-0.039	599.999	0.158	5.660	1772053108.395
2720	600.000	0.018	600.000	0.141	3.963	1772053108.656
2721	600.000	0.006	600.002	0.057	3.656	1772053108.904
2722	600.000	-0.001	600.002	0.120	5.835	1772053109.156
2723	600.000	-0.026	599.997	0.057	5.122	1772053109.409
2724	600.000	0.035	600.001	0.158	4.057	1772053109.656
2725	600.000	0.010	599.997	0.047	3.177	1772053109.910
2726	600.000	0.003	600.002	0.223	6.000	1772053110.192
2727	600.000	-0.022	600.001	0.071	3.791	1772053110.428
2728	600.000	0.003	599.999	0.021	3.284	1772053110.654
2729	600.000	0.016	599.998	0.199	5.623	1772053110.926
2730	600.000	0.019	599.999	0.185	4.202	1772053111.181
2731	600.000	0.024	599.997	0.040	2.379	1772053111.426
2732	600.000	0.009	600.000	0.167	6.178	1772053111.687
2733	600.000	0.032	599.998	0.134	5.121	1772053111.927
2734	600.000	-0.013	600.000	0.227	3.706	1772053112.169
2735	600.000	0.013	600.002	0.174	0.460	1772053112.391
2736	600.000	-0.012	600.001	0.067	5.737	1772053112.675
2737	600.000	-0.003	599.999	0.147	3.309	1772053112.899
2738	600.000	-0.011	600.001	0.035	1.693	1772053113.170
2739	600.000	0.028	600.007	0.084	5.159	1772053113.427
2740	600.000	-0.020	599.998	0.156	4.108	1772053113.670
2741	600.000	0.012	600.001	0.077	3.387	1772053113.919
2742	600.000	-0.010	600.005	0.129	0.182	1772053114.182
2743	600.000	-0.051	599.999	0.143	5.632	1772053114.435
2744	600.000	0.002	599.999	0.161	5.296	1772053114.663
2745	600.000	0.052	600.003	0.105	4.169	1772053114.931
2746	600.000	0.010	600.001	0.141	4.458	1772053115.163
2747	600.000	0.062	600.003	0.246	3.651	1772053115.441
2748	600.000	0.020	600.001	0.053	4.719	1772053115.735
2749	600.000	-0.014	599.997	0.159	4.708	1772053115.991
2750	600.000	0.059	600.000	0.122	3.027	1772053116.227
2751	600.000	-0.052	599.997	0.168	5.752	1772053116.480
2752	600.000	0.040	600.002	0.116	3.988	1772053116.732
2753	600.000	-0.024	599.997	0.164	5.882	1772053116.988
2754	600.000	-0.003	600.004	0.048	5.013	1772053117.230
2755	600.000	-0.013	600.000	0.179	3.125	1772053117.482
2756	600.000	0.015	599.997	0.131	6.158	1772053117.733
2757	600.000	-0.026	600.001	0.116	4.114	1772053117.965
2758	600.000	-0.021	599.998	0.092	0.716	1772053118.230
2759	600.000	-0.006	599.999	0.156	5.998	1772053118.485
2760	600.000	0.049	599.999	0.155	4.087	1772053118.757
2761	600.000	0.010	599.998	0.051	0.025	1772053119.074
2762	600.000	0.016	600.000	0.130	5.470	1772053119.353
2763	600.000	-0.011	600.000	0.189	4.050	1772053119.626
2764	600.000	0.004	600.004	0.085	0.646	1772053119.854
2765	600.000	0.022	600.001	0.167	6.072	1772053120.110
2766	600.000	0.017	599.999	0.115	4.333	1772053120.362
2767	600.000	-0.023	599.999	0.132	4.074	1772053120.607
2768	600.000	-0.003	599.997	0.172	6.173	1772053120.875
2769	600.000	0.008	600.006	0.147	4.060	1772053121.159
2770	600.000	-0.003	599.999	0.134	3.589	1772053121.403
2771	600.000	0.030	600.000	0.199	0.094	1772053121.674
2772	600.000	0.021	600.001	0.089	5.412	1772053121.928
2773	600.000	0.003	600.003	0.142	4.015	1772053122.158
2774	600.000	-0.004	600.002	0.088	0.857	1772053122.412
2775	600.000	-0.024	600.000	0.152	5.270	1772053122.655
2776	600.000	0.006	600.002	0.051	4.063	1772053122.934
2777	600.000	0.011	600.003	0.049	6.059	1772053123.290
2778	600.000	-0.017	600.000	0.118	5.337	1772053123.540
2779	600.000	-0.055	599.997	0.115	3.899	1772053123.782
2780	600.000	0.012	599.996	0.070	2.537	1772053124.030
2781	600.000	-0.047	600.000	0.237	6.025	1772053124.304
2782	600.000	-0.006	600.000	0.068	4.287	1772053124.543
2783	600.000	-0.037	600.000	0.073	3.240	1772053124.803
2784	600.000	-0.000	600.000	0.177	5.943	1772053125.033
2785	600.000	-0.014	599.998	0.126	5.237	1772053125.283
2786	600.000	-0.008	599.999	0.190	3.912	1772053125.545
2787	600.000	0.008	600.000	0.065	0.924	1772053125.790
2788	600.000	0.007	600.000	0.136	5.950	1772053126.049
2789	600.000	0.018	600.003	0.206	6.019	1772053126.297
2790	600.000	-0.028	600.003	0.047	4.890	1772053126.518
2791	600.000	0.022	600.002	0.086	3.480	1772053126.801
2792	600.000	0.008	600.000	0.124	0.083	1772053127.023
2793	600.000	-0.021	600.001	0.171	6.271	1772053127.322
2794	600.000	-0.011	600.001	0.149	3.541	1772053127.595
2795	600.000	-0.003	599.999	0.194	0.020	1772053127.874
2796	600.000	-0.055	600.001	0.153	3.590	1772053128.122
2797	600.000	-0.009	599.998	0.117	6.166	1772053128.372
2798	600.000	0.007	600.000	0.071	3.756	1772053128.637
2799	600.000	-0.016	600.001	0.142	3.804	1772053128.882
2800	600.000	0.013	599.999	0.052	0.942	1772053129.132
2801	600.000	-0.034	599.998	0.216	5.772	1772053129.368
2802	600.000	0.064	600.001	0.048	3.921	1772053129.626
2803	600.000	-0.043	600.000	0.134	3.810	1772053129.874
2804	600.000	0.011	600.000	0.134	3.505	1772053130.139
2805	600.000	0.026	600.000	0.117	2.866	1772053130.398
2806	600.000	0.012	599.998	0.080	1.715	1772053130.671
2807	600.000	0.046	599.996	0.036	5.608	1772053130.930
2808	600.000	-0.044	599.998	0.163	0.068	1772053131.184
2809	600.000	0.060	600.003	0.170	6.193	1772053131.462
2810	600.000	-0.040	599.999	0.158	0.020	1772053131.759
2811	600.000	-0.048	599.996	0.208	6.228	1772053131.995
2812	600.000	-0.020	600.001	0.164	0.132	1772053132.252
2813	600.000	0.018	599.999	0.116	0.306	1772053132.490
2814	600.000	-0.022	599.999	0.194	6.067	1772053132.767
2815	600.000	0.005	600.003	0.177	0.113	1772053133.074
2816	600.000	-0.028	599.998	0.124	0.087	1772053133.292
2817	600.000	-0.005	599.999	0.235	0.141	1772053133.582
2818	600.000	0.000	599.998	0.120	0.160	1772053133.793
2819	600.000	-0.015	599.998	0.119	6.273	1772053134.074
2820	600.000	0.006	599.999	0.162	0.179	1772053134.307
2821	600.000	0.035	599.999	0.100	5.936	1772053134.574
2822	600.000	0.008	600.001	0.141	6.262	1772053134.830
2823	600.000	0.007	599.999	0.177	6.178	1772053135.124
2824	600.000	-0.012	600.001	0.123	5.894	1772053135.367
2825	600.000	-0.006	599.998	0.161	6.027	1772053135.640
2826	600.000	0.001	599.999	0.181	6.153	1772053135.858
2827	600.000	-0.011	599.998	0.258	0.302	1772053136.128
2828	600.000	-0.016	599.998	0.216	0.160	1772053136.369
2829	600.000	0.007	600.000	0.108	6.244	1772053136.657
2830	600.000	-0.019	599.997	0.180	0.228	1772053136.947
2831	600.000	-0.039	599.995	0.104	6.137	1772053137.194
2832	600.000	-0.006	599.998	0.156	0.124	1772053137.443
2833	600.000	0.005	599.997	0.136	6.061	1772053137.690
2834	600.000	-0.026	600.001	0.205	0.236	1772053137.928
2835	600.000	-0.006	599.998	0.203	6.217	1772053138.148
2836	600.000	0.013	599.999	0.137	6.279	1772053138.457
2837	600.000	-0.006	600.001	0.148	0.162	1772053138.762
2838	600.000	-0.019	600.000	0.156	5.991	1772053138.994
2839	600.000	-0.002	599.998	0.174	6.171	1772053139.278
2840	600.000	0.002	600.000	0.180	5.824	1772053139.563
2841	600.000	-0.012	599.999	0.162	0.182	1772053139.821
2842	600.000	0.008	600.000	0.147	6.107	1772053140.049
2843	600.000	0.010	600.000	0.096	5.664	1772053140.314
2844	600.000	-0.018	600.000	0.075	5.539	1772053140.579
2845	600.000	-0.020	600.002	0.226	6.205	1772053140.891
2846	600.000	0.008	599.998	0.129	6.107	1772053141.407
2847	600.000	0.008	600.003	0.172	0.396	1772053141.637
2848	600.000	0.024	600.000	0.131	6.030	1772053141.890
2849	600.000	0.030	600.003	0.198	6.275	1772053142.162
2850	600.000	-0.016	599.998	0.141	6.253	1772053142.429
2851	600.000	-0.029	600.000	0.208	6.236	1772053142.689
2852	600.000	0.006	599.998	0.196	0.471	1772053142.999
2853	600.000	-0.011	599.997	0.137	0.050	1772053143.273
2854	600.000	0.029	600.000	0.182	0.279	1772053143.554
2855	600.000	0.022	600.000	0.115	6.007	1772053143.814
2856	600.000	0.016	600.000	0.169	0.086	1772053144.063
2857	600.000	0.009	599.996	0.155	0.372	1772053144.294
2858	600.000	-0.014	600.002	0.204	6.277	1772053144.573
2859	600.000	-0.030	600.001	0.230	0.123	1772053144.865
2860	600.000	-0.021	599.999	0.157	0.467	1772053145.128
2861	600.000	-0.016	600.000	0.165	6.212	1772053145.450
2862	600.000	0.002	599.998	0.095	6.236	1772053145.662
2863	600.000	-0.006	600.000	0.145	6.163	1772053145.942
2864	600.000	0.015	600.002	0.192	0.161	1772053146.174
2865	600.000	0.002	600.001	0.165	0.195	1772053146.423
2866	600.000	-0.032	599.999	0.221	6.189	1772053146.673
2867	600.000	-0.026	600.001	0.117	0.221	1772053146.948
2868	600.000	0.002	600.000	0.164	6.241	1772053147.205
2869	600.000	0.012	599.999	0.074	0.404	1772053147.466
2870	600.000	-0.022	600.003	0.148	6.236	1772053147.732
2871	600.000	0.055	599.998	0.206	0.128	1772053148.006
2872	600.000	-0.004	600.002	0.210	0.129	1772053148.250
2873	600.000	0.020	599.999	0.183	0.158	1772053148.492
2874	600.000	-0.007	600.001	0.172	0.101	1772053148.778
2875	600.000	-0.011	600.002	0.099	6.152	1772053149.071
2876	600.000	0.010	600.000	0.158	6.108	1772053149.331
2877	600.000	-0.006	600.000	0.141	5.701	1772053149.634
2878	600.000	-0.034	600.001	0.232	6.034	1772053149.853
2879	600.000	0.027	600.004	0.165	6.200	1772053150.134
2880	600.000	0.031	599.999	0.144	6.144	1772053150.396
2881	600.000	-0.034	600.001	0.145	5.860	1772053150.700
2882	600.000	0.007	599.996	0.225	0.142	1772053150.993
2883	600.000	0.034	599.999	0.174	0.035	1772053151.242
2884	600.000	0.018	600.002	0.202	6.272	1772053151.492
2885	600.000	-0.016	600.000	0.135	0.140	1772053151.756
2886	600.000	0.018	599.998	0.188	6.138	1772053152.022
2887	600.000	-0.017	599.998	0.124	5.981	1772053152.316
2888	600.000	-0.011	600.001	0.135	6.114	1772053152.634
2889	600.000	-0.018	599.998	0.191	6.049	1772053152.882
2890	600.000	0.024	599.997	0.240	0.051	1772053153.117
2891	600.000	0.018	599.997	0.173	5.870	1772053153.365
2892	600.000	-0.016	599.999	0.241	0.098	1772053153.634
2893	600.000	0.006	600.003	0.112	0.051	1772053153.854
2894	600.000	0.030	599.998	0.171	0.148	1772053154.135
2895	600.000	-0.009	600.003	0.169	0.045	1772053154.366
2896	600.000	-0.009	599.999	0.156	0.166	1772053154.633
2897	600.000	-0.005	600.000	0.175	0.019	1772053154.876
2898	600.000	-0.027	599.998	0.157	0.336	1772053155.150
2899	600.000	-0.014	600.000	0.124	6.058	1772053155.424
2900	600.000	-0.006	600.002	0.173	0.023	1772053155.701
2901	600.000	0.014	599.998	0.162	5.705	1772053155.988
2902	600.000	-0.012	600.003	0.202	0.007	1772053156.269
2903	600.000	-0.021	599.998	0.205	0.186	1772053156.500
2904	600.000	0.029	599.999	0.224	6.089	1772053156.768
2905	600.000	-0.011	600.006	0.192	0.155	1772053156.994
2906	600.000	0.026	599.997	0.148	5.737	1772053157.257
2907	600.000	0.017	599.999	0.145	6.060	1772053157.527
2908	600.000	-0.041	599.999	0.104	5.753	1772053157.807
2909	600.000	0.030	599.999	0.178	6.254	1772053158.062
2910	600.000	0.033	600.000	0.187	6.129	1772053158.314
2911	600.000	-0.039	600.001	0.155	5.790	1772053158.565
2912	600.000	-0.003	599.999	0.154	6.178	1772053158.825
2913	600.000	-0.001	600.004	0.201	6.065	1772053159.087
2914	600.000	-0.008	600.000	0.159	0.278	1772053159.391
2915	600.000	0.015	599.999	0.149	0.024	1772053159.691
2916	600.000	0.024	600.002	0.194	0.040	1772053159.924
2917	600.000	-0.038	600.001	0.222	0.252	1772053160.188
2918	600.000	0.001	600.001	0.202	6.234	1772053160.456
2919	600.000	0.037	600.001	0.123	5.571	1772053160.682
2920	600.000	-0.053	599.995	0.110	6.069	1772053160.947
2921	600.000	-0.001	599.997	0.195	0.007	1772053161.204
2922	600.000	0.009	599.998	0.196	5.748	1772053161.449
2923	600.000	0.015	599.997	0.220	5.841	1772053161.679
2924	600.000	-0.017	600.002	0.110	5.984	1772053161.941
2925	600.000	0.020	600.001	0.099	0.079	1772053162.181
2926	600.000	0.012	600.002	0.224	0.294	1772053162.432
2927	600.000	0.014	600.002	0.228	0.070	1772053162.694
2928	600.000	0.032	600.003	0.167	6.267	1772053162.948
2929	600.000	0.014	600.000	0.221	0.223	1772053163.241
2930	600.000	0.053	600.002	0.177	5.779	1772053163.474
2931	600.000	0.023	600.002	0.225	5.618	1772053163.753
2932	600.000	0.019	599.996	0.180	6.231	1772053164.015
2933	600.000	0.018	600.001	0.185	6.168	1772053164.298
2934	600.000	-0.028	600.004	0.164	6.077	1772053164.576
2935	600.000	0.027	599.998	0.143	0.204	1772053164.821
2936	600.000	0.005	599.997	0.065	5.064	1772053165.048
2937	600.000	-0.014	600.000	0.195	0.116	1772053165.327
2938	600.000	-0.028	600.000	0.131	0.090	1772053165.553
2939	600.000	-0.002	600.000	0.194	0.101	1772053165.829
2940	600.000	0.007	599.999	0.105	6.273	1772053166.113
2941	600.000	0.007	600.000	0.123	5.875	1772053166.389
2942	600.000	0.031	600.002	0.188	0.090	1772053166.696
2943	600.000	0.022	599.999	0.225	6.188	1772053166.969
2944	600.000	-0.031	599.998	0.168	5.982	1772053167.250
2945	600.000	0.003	599.999	0.096	0.027	1772053167.488
2946	600.000	0.012	600.002	0.151	0.023	1772053167.744
2947	600.000	0.031	600.000	0.180	6.000	1772053168.009
2948	600.000	0.011	600.003	0.175	5.768	1772053168.287
2949	600.000	-0.049	600.000	0.215	0.084	1772053168.525
2950	600.000	0.033	600.001	0.189	0.046	1772053168.756
2951	600.000	-0.026	599.999	0.098	0.031	1772053169.027
2952	600.000	0.017	600.002	0.081	5.707	1772053169.291
2953	600.000	-0.017	600.000	0.216	6.200	1772053169.586
2954	600.000	0.023	600.001	0.206	6.048	1772053169.841
2955	600.000	0.012	599.999	0.170	0.173	1772053170.060
2956	600.000	0.006	599.999	0.142	6.015	1772053170.316
2957	600.000	0.042	599.997	0.208	0.394	1772053170.586
2958	600.000	-0.014	599.997	0.133	0.345	1772053170.811
2959	600.000	-0.010	600.003	0.235	6.266	1772053171.069
2960	600.000	-0.000	600.000	0.198	5.898	1772053171.331
2961	600.000	-0.005	600.001	0.278	6.052	1772053171.588
2962	600.000	-0.007	599.999	0.171	6.205	1772053171.840
2963	600.000	-0.027	600.000	0.105	5.644	1772053172.139
2964	600.000	0.026	600.003	0.228	5.855	1772053172.380
2965	600.000	-0.008	599.999	0.132	6.037	1772053172.645
2966	600.000	-0.025	599.999	0.238	0.235	1772053172.905
2967	600.000	-0.011	599.999	0.166	5.892	1772053173.205
2968	600.000	0.027	600.001	0.213	6.100	1772053173.435
2969	600.000	0.014	599.999	0.119	0.017	1772053173.698
2970	600.000	-0.010	600.001	0.177	0.179	1772053173.951
2971	600.000	0.011	599.998	0.248	0.238	1772053174.208
2972	600.000	0.024	600.002	0.251	0.291	1772053174.471
2973	600.000	0.006	599.997	0.133	5.942	1772053174.793
2974	600.000	-0.029	600.002	0.135	6.206	1772053175.097
2975	600.000	-0.015	599.999	0.137	5.807	1772053175.372
2976	600.000	0.064	600.000	0.191	0.231	1772053175.642
2977	600.000	0.027	600.003	0.129	6.019	1772053175.886
2978	600.000	-0.009	599.999	0.217	6.274	1772053176.141
2979	600.000	-0.039	599.999	0.152	6.005	1772053176.396
2980	600.000	-0.033	600.002	0.143	6.227	1772053176.656
2981	600.000	0.050	600.001	0.124	6.197	1772053176.949
2982	600.000	-0.005	599.998	0.134	6.048	1772053177.213
2983	600.000	0.017	599.999	0.089	6.254	1772053177.440
2984	600.000	0.027	599.999	0.276	0.184	1772053177.706
2985	600.000	0.015	599.999	0.192	0.050	1772053177.962
2986	600.000	0.017	599.999	0.153	5.910	1772053178.235
2987	600.000	0.002	600.000	0.182	5.803	1772053178.494
2988	600.000	0.042	599.998	0.211	0.060	1772053178.748
2989	600.000	0.012	600.001	0.273	0.222	1772053178.990
2990	600.000	-0.011	600.000	0.191	6.234	1772053179.216
2991	600.000	0.037	600.001	0.127	0.099	1772053179.501
2992	600.000	-0.008	600.003	0.226	6.073	1772053179.726
2993	600.000	-0.015	600.001	0.182	5.807	1772053180.011
2994	600.000	-0.010	600.002	0.168	5.978	1772053180.318
2995	600.000	0.024	599.996	0.185	0.061	1772053180.604
2996	600.000	0.008	599.999	0.204	0.288	1772053180.854
2997	600.000	-0.021	600.001	0.219	6.230	1772053181.109
2998	600.000	0.017	600.000	0.107	6.058	1772053181.384
2999	600.000	-0.010	600.001	0.165	6.212	1772053181.685
3000	600.000	0.020	600.001	0.098	5.691	1772053181.922
3001	600.000	0.027	600.000	0.103	6.037	1772053182.150
3002	600.000	-0.013	599.998	0.202	6.080	1772053182.427
3003	600.000	-0.029	599.998	0.109	6.046	1772053182.687
3004	600.000	-0.016	599.999	0.188	6.246	1772053182.989
3005	600.000	-0.020	599.999	0.275	0.118	1772053183.206
3006	600.000	0.023	600.002	0.166	0.078	1772053183.478
3007	600.000	-0.025	600.002	0.157	5.873	1772053183.733
3008	600.000	0.004	600.003	0.136	5.930	1772053183.991
3009	600.000	0.001	600.000	0.216	6.251	1772053184.221
3010	600.000	-0.002	599.997	0.188	5.970	1772053184.463
3011	600.000	-0.005	599.998	0.190	0.051	1772053184.749
3012	600.000	0.019	600.000	0.232	6.101	1772053184.984
3013	600.000	-0.011	599.999	0.205	6.091	1772053185.241
3014	600.000	-0.009	600.000	0.168	5.825	1772053185.550
3015	600.000	-0.014	600.003	0.168	5.859	1772053185.784
3016	600.000	0.015	600.003	0.123	5.882	1772053186.038
3017	600.000	0.026	600.003	0.162	0.051	1772053186.299
3018	600.000	-0.003	600.000	0.161	6.074	1772053186.543
3019	600.000	0.007	600.000	0.190	6.203	1772053186.801
3020	600.000	-0.036	600.000	0.100	6.226	1772053187.041
3021	600.000	0.009	599.999	0.221	6.260	1772053187.308
3022	600.000	0.004	600.001	0.187	6.071	1772053187.559
3023	600.000	-0.030	600.002	0.168	6.207	1772053187.877
3024	600.000	-0.003	600.004	0.186	6.250	1772053188.196
3025	600.000	-0.009	600.001	0.176	6.062	1772053188.458
3026	600.000	0.020	599.998	0.270	0.441	1772053188.726
3027	600.000	-0.030	600.000	0.263	0.043	1772053188.976
3028	600.000	-0.011	599.999	0.059	4.477	1772053189.246
3029	600.000	-0.034	599.996	0.160	0.023	1772053189.489
3030	600.000	-0.011	600.000	0.185	6.053	1772053189.738
3031	600.000	-0.007	600.002	0.116	6.030	1772053189.990
3032	600.000	0.009	600.000	0.239	0.048	1772053190.208
3033	600.000	-0.008	600.000	0.270	0.240	1772053190.495
3034	600.000	-0.013	599.999	0.127	0.536	1772053190.721
3035	600.000	0.023	600.001	0.175	0.403	1772053190.983
3036	600.000	-0.007	600.003	0.209	0.183	1772053191.242
3037	600.000	-0.005	600.004	0.226	0.384	1772053191.496
3038	600.000	-0.049	600.003	0.205	0.172	1772053191.723
3039	600.000	0.050	599.998	0.207	0.104	1772053191.976
3040	600.000	-0.025	600.000	0.171	5.745	1772053192.239
3041	600.000	0.014	600.003	0.155	0.201	1772053192.473
3042	600.000	0.005	600.001	0.276	0.028	1772053192.761
3043	600.000	0.014	599.998	0.180	5.704	1772053193.057
3044	600.000	0.017	600.000	0.109	0.450	1772053193.355
3045	600.000	-0.019	600.000	0.189	0.433	1772053193.609
3046	600.000	0.024	599.997	0.204	0.430	1772053193.862
3047	600.000	-0.017	600.003	0.253	6.055	1772053194.119
3048	600.000	0.014	600.000	0.071	5.507	1772053194.375
3049	600.000	-0.015	600.000	0.171	6.253	1772053194.699
3050	600.000	0.026	599.996	0.173	6.210	1772053194.994
3051	600.000	-0.026	600.001	0.152	6.242	1772053195.252
3052	600.000	-0.021	600.002	0.177	5.161	1772053195.495
3053	600.000	-0.027	599.995	0.065	0.360	1772053195.743
3054	600.000	0.001	600.000	0.210	6.183	1772053195.968
3055	600.000	-0.012	600.002	0.113	0.324	1772053196.238
3056	600.000	0.023	599.999	0.194	0.003	1772053196.479
3057	600.000	0.030	599.996	0.154	5.808	1772053196.741
3058	600.000	0.023	600.000	0.221	0.018	1772053196.986
3059	600.000	-0.024	600.002	0.207	0.052	1772053197.220
3060	600.000	-0.025	599.996	0.167	6.013	1772053197.492
3061	600.000	-0.012	599.999	0.086	0.580	1772053197.722
3062	600.000	-0.043	600.003	0.250	0.022	1772053197.984
3063	600.000	-0.004	600.000	0.252	0.042	1772053198.242
3064	600.000	0.021	599.999	0.153	6.068	1772053198.467
3065	600.000	0.042	599.998	0.180	0.319	1772053198.745
3066	600.000	0.005	599.999	0.138	0.272	1772053198.961
3067	600.000	0.021	600.004	0.168	6.043	1772053199.231
3068	600.000	-0.016	600.000	0.173	5.992	1772053199.465
3069	600.000	-0.005	600.000	0.095	0.180	1772053199.736
3070	600.000	-0.048	599.999	0.143	6.255	1772053199.995
3071	600.000	-0.018	599.999	0.180	6.262	1772053200.236
3072	600.000	0.032	599.997	0.270	6.090	1772053200.466
3073	600.000	-0.006	600.003	0.223	6.164	1772053200.723
3074	600.000	-0.024	600.001	0.117	0.196	1772053200.984
3075	600.000	0.015	600.001	0.242	6.216	1772053201.215
3076	600.000	-0.010	599.998	0.143	0.247	1772053201.482
3077	600.000	-0.023	600.002	0.229	6.241	1772053201.730
3078	600.000	-0.008	599.999	0.098	0.011	1772053201.989
3079	600.000	-0.004	600.001	0.187	5.982	1772053202.240
3080	600.000	0.024	599.998	0.225	0.047	1772053202.483
3081	600.000	0.001	599.998	0.186	6.152	1772053202.725
3082	600.000	-0.025	600.003	0.229	0.168	1772053202.979
3083	600.000	-0.017	600.002	0.211	0.057	1772053203.244
3084	600.000	-0.023	600.000	0.195	0.102	1772053203.502
3085	600.000	-0.037	600.001	0.164	0.229	1772053203.793
3086	600.000	0.021	599.998	0.207	0.227	1772053204.054
3087	600.000	0.030	600.001	0.263	0.163	1772053204.296
3088	600.000	-0.014	599.996	0.167	5.929	1772053204.540
3089	600.000	0.011	599.998	0.113	0.150	1772053204.804
3090	600.000	-0.004	599.999	0.217	0.034	1772053205.036
3091	600.000	0.030	599.997	0.150	5.545	1772053205.308
3092	600.000	-0.003	600.002	0.188	6.270	1772053205.554
3093	600.000	0.011	600.002	0.089	5.968	1772053205.801
3094	600.000	-0.013	600.000	0.163	6.170	1772053206.051
3095	600.000	-0.001	600.000	0.232	6.144	1772053206.286
3096	600.000	-0.036	599.998	0.149	6.271	1772053206.580
3097	600.000	-0.042	599.999	0.105	5.796	1772053206.874
3098	600.000	0.002	600.000	0.178	0.103	1772053207.114
3099	600.000	-0.029	600.001	0.154	5.780	1772053207.334
3100	600.000	0.007	600.000	0.122	5.569	1772053207.615
3101	600.000	-0.012	600.000	0.148	0.023	1772053207.846
3102	600.000	-0.015	600.002	0.146	0.067	1772053208.115
3103	600.000	0.017	599.994	0.191	6.219	1772053208.377
3104	600.000	-0.018	599.999	0.143	6.220	1772053208.678
3105	600.000	-0.004	600.000	0.116	5.965	1772053208.896
3106	600.000	0.014	600.000	0.172	6.162	1772053209.184
3107	600.000	-0.012	599.998	0.226	6.111	1772053209.429
3108	600.000	0.020	600.002	0.142	5.846	1772053209.660
3109	600.000	0.028	599.998	0.144	0.166	1772053209.910
3110	600.000	0.015	599.998	0.212	6.143	1772053210.180
3111	600.000	-0.009	599.998	0.221	0.328	1772053210.438
3112	600.000	-0.022	599.999	0.165	0.012	1772053210.670
3113	600.000	0.004	599.999	0.143	0.345	1772053210.908
3114	600.000	-0.015	599.998	0.165	6.243	1772053211.159
3115	600.000	0.012	599.998	0.155	0.053	1772053211.452
3116	600.000	0.013	599.999	0.194	6.135	1772053211.760
3117	600.000	-0.004	600.003	0.176	0.206	1772053212.035
3118	600.000	0.030	599.999	0.140	5.924	1772053212.316
3119	600.000	0.003	600.000	0.173	6.203	1772053212.572
3120	600.000	0.019	600.004	0.154	0.422	1772053212.867
3121	600.000	-0.045	599.999	0.199	6.093	1772053213.099
3122	600.000	-0.027	599.999	0.221	6.262	1772053213.375
3123	600.000	-0.016	600.003	0.194	0.068	1772053213.610
3124	600.000	0.008	600.004	0.100	0.375	1772053213.826
3125	600.000	0.025	600.001	0.109	6.106	1772053214.113
3126	600.000	-0.024	600.001	0.248	6.018	1772053214.342
3127	600.000	-0.020	600.000	0.153	6.096	1772053214.612
3128	600.000	0.009	600.001	0.187	0.211	1772053214.839
3129	600.000	0.010	600.001	0.122	6.033	1772053215.104
3130	600.000	0.011	600.000	0.108	6.067	1772053215.348
